PE UV       SUBTECH     SPECTRUM    ASCII       PEDS        4.00        
   -1
100% or 0 Absorbance Baseline.Correction.Raw.asc
20/12/09
14:16:57.00
20/12/09
14:16:57.00
Administrator

300.000000
1
Lambda 850
850L1710193
PerkinElmer UV WinLab 6.4.0.973 / 2.02.06 Lambda 800 UV/VIS, Jan 28 2016 16:58:34

0
0
2
0
0
UV/VIS
0
1
1
RBeamAtt,SBeamAtt,60mm sphere
0
0
0
0
Fix
 
0
0.2
0
0
0
 
 
 
0
 
0
319.2
0
Front
100
 
S:100 R:100
 
0
0
0
 
0
 
 
 
0
 
 
0
0
0
0
0
 
 
 
 
0
0


0
0
#HDR
-1
-1
#GR
nm
%T
1.0
0.0
750.000000
-1.500000
301
8
123.919800
104.626800
#DATA
750.000000	123.919800
748.500000	123.431000
747.000000	123.419900
745.500000	123.419600
744.000000	123.415200
742.500000	123.283400
741.000000	123.252900
739.500000	123.191500
738.000000	123.096200
736.500000	123.214800
735.000000	123.055400
733.500000	123.116800
732.000000	122.952200
730.500000	122.891300
729.000000	122.945300
727.500000	122.912100
726.000000	122.751400
724.500000	122.727300
723.000000	122.753800
721.500000	122.488900
720.000000	122.639600
718.500000	122.588900
717.000000	122.443100
715.500000	122.523200
714.000000	122.471800
712.500000	122.493700
711.000000	122.264600
709.500000	122.385400
708.000000	122.353100
706.500000	122.312600
705.000000	122.119300
703.500000	122.114000
702.000000	122.277200
700.500000	122.131900
699.000000	122.092500
697.500000	122.163100
696.000000	122.130500
694.500000	122.015300
693.000000	122.031700
691.500000	121.918500
690.000000	121.940800
688.500000	121.772900
687.000000	121.803700
685.500000	121.823600
684.000000	121.740800
682.500000	121.662600
681.000000	121.623600
679.500000	121.636700
678.000000	121.610500
676.500000	121.587800
675.000000	121.500700
673.500000	121.450300
672.000000	121.557600
670.500000	121.365800
669.000000	121.384400
667.500000	121.506600
666.000000	121.363500
664.500000	121.354800
663.000000	121.356100
661.500000	121.387400
660.000000	121.344200
658.500000	121.281400
657.000000	121.254600
655.500000	121.178300
654.000000	121.207200
652.500000	121.199500
651.000000	121.190900
649.500000	121.189300
648.000000	121.087300
646.500000	121.063200
645.000000	121.017900
643.500000	121.042500
642.000000	121.018400
640.500000	121.009700
639.000000	121.054100
637.500000	121.041500
636.000000	121.031900
634.500000	120.997100
633.000000	120.973800
631.500000	120.962100
630.000000	121.008400
628.500000	121.013700
627.000000	120.889200
625.500000	120.877200
624.000000	120.896100
622.500000	120.884700
621.000000	120.830100
619.500000	120.854500
618.000000	120.828900
616.500000	120.846900
615.000000	120.852000
613.500000	120.787000
612.000000	120.838400
610.500000	120.827600
609.000000	120.801800
607.500000	120.782400
606.000000	120.779700
604.500000	120.838200
603.000000	120.806600
601.500000	120.783800
600.000000	120.762800
598.500000	120.779500
597.000000	120.783700
595.500000	120.792600
594.000000	120.786500
592.500000	120.741800
591.000000	120.717300
589.500000	120.728600
588.000000	120.701600
586.500000	120.723400
585.000000	120.769100
583.500000	120.753300
582.000000	120.754400
580.500000	120.722300
579.000000	120.720200
577.500000	120.725800
576.000000	120.751200
574.500000	120.771300
573.000000	120.774300
571.500000	120.761700
570.000000	120.746400
568.500000	120.781900
567.000000	120.773800
565.500000	120.765100
564.000000	120.822600
562.500000	120.898000
561.000000	120.873800
559.500000	120.752500
558.000000	120.735000
556.500000	120.716200
555.000000	120.700100
553.500000	120.769200
552.000000	120.758000
550.500000	120.719500
549.000000	120.706100
547.500000	120.701500
546.000000	120.734000
544.500000	120.732700
543.000000	120.731200
541.500000	120.753600
540.000000	120.778900
538.500000	120.779900
537.000000	120.729000
535.500000	120.716300
534.000000	120.718800
532.500000	120.738000
531.000000	120.712000
529.500000	120.719100
528.000000	120.749700
526.500000	120.703600
525.000000	120.675400
523.500000	120.683100
522.000000	120.666800
520.500000	120.660200
519.000000	120.629800
517.500000	120.622300
516.000000	120.661900
514.500000	120.674900
513.000000	120.672600
511.500000	120.677900
510.000000	120.682000
508.500000	120.694600
507.000000	120.717300
505.500000	120.705100
504.000000	120.693800
502.500000	120.664300
501.000000	120.614900
499.500000	120.545600
498.000000	120.493000
496.500000	120.377100
495.000000	120.308400
493.500000	120.252700
492.000000	120.109500
490.500000	119.975800
489.000000	119.917000
487.500000	119.830700
486.000000	119.745800
484.500000	119.651600
483.000000	119.520600
481.500000	119.326000
480.000000	119.199100
478.500000	119.256700
477.000000	119.388300
475.500000	119.430400
474.000000	119.379800
472.500000	119.401800
471.000000	119.437900
469.500000	119.465600
468.000000	119.492500
466.500000	119.579700
465.000000	119.680100
463.500000	119.754200
462.000000	119.806500
460.500000	119.802400
459.000000	119.808000
457.500000	119.788200
456.000000	119.726800
454.500000	119.668900
453.000000	119.560300
451.500000	119.439800
450.000000	119.406200
448.500000	119.334100
447.000000	119.290000
445.500000	119.284700
444.000000	118.994400
442.500000	118.807100
441.000000	118.694300
439.500000	118.643000
438.000000	118.654600
436.500000	118.645200
435.000000	118.567500
433.500000	118.504400
432.000000	118.371000
430.500000	118.356700
429.000000	118.247700
427.500000	118.295600
426.000000	118.260600
424.500000	118.181100
423.000000	117.989000
421.500000	117.953200
420.000000	117.918500
418.500000	117.753500
417.000000	117.575800
415.500000	117.381000
414.000000	117.286700
412.500000	117.079300
411.000000	116.784900
409.500000	116.548400
408.000000	116.175500
406.500000	115.915100
405.000000	115.466900
403.500000	115.028000
402.000000	114.573900
400.500000	114.133900
399.000000	113.854700
397.500000	113.501000
396.000000	113.103400
394.500000	112.780300
393.000000	112.558200
391.500000	112.317000
390.000000	112.103300
388.500000	111.715300
387.000000	111.553800
385.500000	111.380900
384.000000	111.180200
382.500000	111.131500
381.000000	111.035200
379.500000	110.875200
378.000000	111.057700
376.500000	110.740000
375.000000	109.405400
373.500000	109.327300
372.000000	109.460200
370.500000	109.356600
369.000000	109.498000
367.500000	109.345900
366.000000	109.225700
364.500000	109.300300
363.000000	109.040700
361.500000	109.049400
360.000000	108.892800
358.500000	108.739700
357.000000	108.843800
355.500000	108.667200
354.000000	108.507200
352.500000	108.433000
351.000000	108.385900
349.500000	108.312400
348.000000	108.120500
346.500000	108.166100
345.000000	108.077100
343.500000	107.894000
342.000000	107.868500
340.500000	107.691300
339.000000	107.585100
337.500000	107.615200
336.000000	107.379500
334.500000	107.518800
333.000000	107.433800
331.500000	107.296400
330.000000	107.401600
328.500000	107.253100
327.000000	107.200800
325.500000	107.117500
324.000000	107.084500
322.500000	107.032700
321.000000	106.819800
319.500000	106.866100
318.000000	105.841300
316.500000	106.033900
315.000000	105.984300
313.500000	105.753400
312.000000	105.840100
310.500000	105.664000
309.000000	105.508800
307.500000	105.277100
306.000000	105.098000
304.500000	104.845200
303.000000	104.765300
301.500000	104.729200
300.000000	104.626800
