PE UV       SUBTECH     SPECTRUM    ASCII       PEDS        4.00        
   -1
Sample82.Sample.Raw.asc
20/12/16
16:30:38.00
20/12/16
16:30:38.00
Administrator

300.000000
1
Lambda 850
850L1710193
PerkinElmer UV WinLab 6.4.0.973 / 2.02.06 Lambda 800 UV/VIS, Jan 28 2016 16:58:34

0
0
2
0
0
UV/VIS
1
1
1
RBeamAtt,SBeamAtt,60mm sphere
0
0
0
0
Fix
 
0
0.2
0
0
0
 
 
 
0
 
0
319.2
0
Front
100
 
S:100 R:100
 
0
0
0
 
0
 
 
 
0
 
 
0
0
0
0
0
 
 
 
 
0
0


0
0
#HDR
-1
-1
#GR
nm
%T
1.0
0.0
750.000000
-1.500000
301
8
74.296135
-0.036320
#DATA
750.000000	73.758219
748.500000	74.296135
747.000000	74.060250
745.500000	74.222310
744.000000	74.051958
742.500000	73.879776
741.000000	74.143417
739.500000	73.957072
738.000000	74.002499
736.500000	73.928709
735.000000	74.050745
733.500000	74.047924
732.000000	74.065645
730.500000	73.879964
729.000000	74.020861
727.500000	73.915126
726.000000	74.092061
724.500000	74.043565
723.000000	74.012234
721.500000	73.978406
720.000000	73.989758
718.500000	73.866720
717.000000	73.870796
715.500000	73.875319
714.000000	73.919581
712.500000	73.908924
711.000000	73.813147
709.500000	73.848931
708.000000	73.924457
706.500000	73.856808
705.000000	73.824611
703.500000	73.799700
702.000000	73.793381
700.500000	73.817819
699.000000	73.722418
697.500000	73.704764
696.000000	73.737658
694.500000	73.720117
693.000000	73.718931
691.500000	73.637844
690.000000	73.559105
688.500000	73.829288
687.000000	73.746624
685.500000	73.593272
684.000000	73.643015
682.500000	73.639960
681.000000	73.672623
679.500000	73.682614
678.000000	73.602567
676.500000	73.529554
675.000000	73.634500
673.500000	73.616389
672.000000	73.578262
670.500000	73.630034
669.000000	73.628563
667.500000	73.542772
666.000000	73.495966
664.500000	73.529646
663.000000	73.569270
661.500000	73.488623
660.000000	73.532999
658.500000	73.520270
657.000000	73.430227
655.500000	73.468252
654.000000	73.402187
652.500000	73.425366
651.000000	73.410667
649.500000	73.371266
648.000000	73.384229
646.500000	73.352258
645.000000	73.344057
643.500000	73.394846
642.000000	73.331402
640.500000	73.306830
639.000000	73.284405
637.500000	73.280160
636.000000	73.301248
634.500000	73.299464
633.000000	73.298733
631.500000	73.233180
630.000000	73.197891
628.500000	73.185027
627.000000	73.182706
625.500000	73.190856
624.000000	73.139610
622.500000	73.160422
621.000000	73.185542
619.500000	73.127641
618.000000	73.082651
616.500000	73.081329
615.000000	73.041796
613.500000	72.993448
612.000000	72.965384
610.500000	72.957670
609.000000	72.984999
607.500000	72.956758
606.000000	72.974306
604.500000	72.967918
603.000000	72.938095
601.500000	72.874956
600.000000	72.844108
598.500000	72.868505
597.000000	72.820650
595.500000	72.804425
594.000000	72.757038
592.500000	72.703407
591.000000	72.663247
589.500000	72.669988
588.000000	72.656486
586.500000	72.676609
585.000000	72.632247
583.500000	72.582871
582.000000	72.577293
580.500000	72.548955
579.000000	72.543600
577.500000	72.542408
576.000000	72.479205
574.500000	72.472714
573.000000	72.481035
571.500000	72.416780
570.000000	72.399629
568.500000	72.361468
567.000000	72.316673
565.500000	72.277073
564.000000	72.238800
562.500000	72.196526
561.000000	72.330598
559.500000	72.446714
558.000000	72.411368
556.500000	72.415316
555.000000	72.412130
553.500000	72.350840
552.000000	72.331421
550.500000	72.334564
549.000000	72.290811
547.500000	72.279657
546.000000	72.269357
544.500000	72.240184
543.000000	72.198436
541.500000	72.153555
540.000000	72.136712
538.500000	72.134918
537.000000	72.137645
535.500000	72.121683
534.000000	72.136133
532.500000	72.123219
531.000000	72.085177
529.500000	72.032793
528.000000	72.025280
526.500000	72.023731
525.000000	71.954025
523.500000	71.867239
522.000000	71.809767
520.500000	71.722861
519.000000	71.612822
517.500000	71.506936
516.000000	71.351344
514.500000	71.154480
513.000000	70.932641
511.500000	70.680328
510.000000	70.456112
508.500000	70.249964
507.000000	70.031224
505.500000	69.868753
504.000000	69.740647
502.500000	69.686011
501.000000	69.648940
499.500000	69.643754
498.000000	69.761236
496.500000	69.843433
495.000000	69.939123
493.500000	70.136042
492.000000	70.288378
490.500000	70.423845
489.000000	70.545105
487.500000	70.660930
486.000000	70.778771
484.500000	70.945573
483.000000	71.258893
481.500000	71.578117
480.000000	71.601988
478.500000	71.313386
477.000000	71.024021
475.500000	70.897875
474.000000	70.743942
472.500000	70.585251
471.000000	70.424572
469.500000	70.225080
468.000000	70.006315
466.500000	69.707051
465.000000	69.414567
463.500000	69.212163
462.000000	69.006551
460.500000	68.864161
459.000000	68.772438
457.500000	68.705513
456.000000	68.648963
454.500000	68.693723
453.000000	68.728215
451.500000	68.719868
450.000000	68.738671
448.500000	68.722678
447.000000	68.698643
445.500000	68.806049
444.000000	69.122865
442.500000	69.200336
441.000000	69.121442
439.500000	69.074780
438.000000	68.961054
436.500000	68.832575
435.000000	68.812008
433.500000	68.707223
432.000000	68.627101
430.500000	68.559641
429.000000	68.466420
427.500000	68.461876
426.000000	68.350978
424.500000	68.308970
423.000000	68.274389
421.500000	68.106031
420.000000	68.036737
418.500000	68.023820
417.000000	67.978152
415.500000	67.813222
414.000000	67.749332
412.500000	67.648759
411.000000	67.576933
409.500000	67.454208
408.000000	67.328126
406.500000	67.283454
405.000000	67.137107
403.500000	66.967520
402.000000	66.858764
400.500000	66.745445
399.000000	66.698845
397.500000	66.524124
396.000000	66.337289
394.500000	66.189992
393.000000	66.054102
391.500000	65.851392
390.000000	65.722322
388.500000	65.565623
387.000000	65.309180
385.500000	65.127454
384.000000	64.864078
382.500000	64.581254
381.000000	64.275304
379.500000	63.861858
378.000000	63.712240
376.500000	64.141842
375.000000	63.900017
373.500000	62.859315
372.000000	61.764848
370.500000	60.648682
369.000000	59.152896
367.500000	57.348909
366.000000	55.308516
364.500000	52.968857
363.000000	49.998586
361.500000	46.829966
360.000000	42.969994
358.500000	38.672295
357.000000	33.751091
355.500000	28.650518
354.000000	23.376772
352.500000	18.140184
351.000000	13.356536
349.500000	9.275572
348.000000	6.017852
346.500000	3.685363
345.000000	2.115329
343.500000	1.100306
342.000000	0.547645
340.500000	0.237946
339.000000	0.101530
337.500000	0.048164
336.000000	0.025363
334.500000	0.013785
333.000000	0.021138
331.500000	0.024531
330.000000	0.028956
328.500000	0.025100
327.000000	0.037031
325.500000	0.029471
324.000000	0.031295
322.500000	0.027620
321.000000	0.026165
319.500000	0.028557
318.000000	-0.006957
316.500000	-0.036320
315.000000	-0.035108
313.500000	-0.035146
312.000000	-0.031070
310.500000	-0.032327
309.000000	-0.026299
307.500000	-0.023142
306.000000	-0.016463
304.500000	-0.015458
303.000000	-0.015945
301.500000	-0.020148
300.000000	-0.019311
