PE UV       SUBTECH     SPECTRUM    ASCII       PEDS        4.00        
   -1
Sample79.Sample.Raw.asc
20/12/16
16:20:39.00
20/12/16
16:20:39.00
Administrator

300.000000
1
Lambda 850
850L1710193
PerkinElmer UV WinLab 6.4.0.973 / 2.02.06 Lambda 800 UV/VIS, Jan 28 2016 16:58:34

0
0
2
0
0
UV/VIS
1
1
1
RBeamAtt,SBeamAtt,60mm sphere
0
0
0
0
Fix
 
0
0.2
0
0
0
 
 
 
0
 
0
319.2
0
Front
100
 
S:100 R:100
 
0
0
0
 
0
 
 
 
0
 
 
0
0
0
0
0
 
 
 
 
0
0


0
0
#HDR
-1
-1
#GR
nm
%T
1.0
0.0
750.000000
-1.500000
301
8
75.484252
-0.024127
#DATA
750.000000	75.114174
748.500000	75.435920
747.000000	75.174442
745.500000	75.441403
744.000000	75.484252
742.500000	75.414026
741.000000	75.358219
739.500000	75.235341
738.000000	75.300565
736.500000	75.338077
735.000000	75.335300
733.500000	75.423721
732.000000	75.338548
730.500000	75.168892
729.000000	75.243908
727.500000	75.246134
726.000000	75.332658
724.500000	75.289511
723.000000	75.287295
721.500000	75.248606
720.000000	75.228271
718.500000	75.082865
717.000000	75.198296
715.500000	75.154113
714.000000	75.165719
712.500000	75.220071
711.000000	75.142858
709.500000	75.145231
708.000000	75.206817
706.500000	75.101291
705.000000	75.110461
703.500000	75.013851
702.000000	74.970632
700.500000	75.129793
699.000000	74.924704
697.500000	75.038123
696.000000	75.056547
694.500000	75.045940
693.000000	75.007045
691.500000	74.956441
690.000000	74.885392
688.500000	75.042775
687.000000	75.000164
685.500000	74.905123
684.000000	74.876151
682.500000	74.868819
681.000000	74.913406
679.500000	74.988625
678.000000	74.896028
676.500000	74.706828
675.000000	74.903434
673.500000	74.852016
672.000000	74.778866
670.500000	74.845913
669.000000	74.826922
667.500000	74.795469
666.000000	74.757137
664.500000	74.818066
663.000000	74.751525
661.500000	74.724361
660.000000	74.674061
658.500000	74.765576
657.000000	74.735391
655.500000	74.724557
654.000000	74.665134
652.500000	74.668401
651.000000	74.670736
649.500000	74.674122
648.000000	74.620480
646.500000	74.563515
645.000000	74.602564
643.500000	74.614176
642.000000	74.581693
640.500000	74.530515
639.000000	74.512960
637.500000	74.538981
636.000000	74.536465
634.500000	74.457386
633.000000	74.501977
631.500000	74.490508
630.000000	74.465612
628.500000	74.456906
627.000000	74.401898
625.500000	74.395757
624.000000	74.339134
622.500000	74.386450
621.000000	74.443182
619.500000	74.405726
618.000000	74.334607
616.500000	74.310951
615.000000	74.329711
613.500000	74.278304
612.000000	74.250344
610.500000	74.225391
609.000000	74.235368
607.500000	74.196281
606.000000	74.173116
604.500000	74.225763
603.000000	74.208769
601.500000	74.133004
600.000000	74.136137
598.500000	74.119236
597.000000	74.086034
595.500000	74.073927
594.000000	74.063396
592.500000	74.012635
591.000000	73.970115
589.500000	74.013601
588.000000	73.980067
586.500000	73.947877
585.000000	73.905169
583.500000	73.880596
582.000000	73.900956
580.500000	73.901913
579.000000	73.890916
577.500000	73.857068
576.000000	73.825631
574.500000	73.845184
573.000000	73.806546
571.500000	73.756553
570.000000	73.738869
568.500000	73.705996
567.000000	73.646234
565.500000	73.626764
564.000000	73.622431
562.500000	73.580667
561.000000	73.739158
559.500000	73.881213
558.000000	73.834214
556.500000	73.839188
555.000000	73.869052
553.500000	73.828757
552.000000	73.833200
550.500000	73.851184
549.000000	73.828022
547.500000	73.802615
546.000000	73.772076
544.500000	73.773628
543.000000	73.768836
541.500000	73.787134
540.000000	73.802160
538.500000	73.802206
537.000000	73.795809
535.500000	73.780513
534.000000	73.814679
532.500000	73.809524
531.000000	73.798315
529.500000	73.779840
528.000000	73.769401
526.500000	73.774477
525.000000	73.720285
523.500000	73.677605
522.000000	73.641723
520.500000	73.572997
519.000000	73.479357
517.500000	73.373273
516.000000	73.222401
514.500000	73.016131
513.000000	72.771215
511.500000	72.526302
510.000000	72.315140
508.500000	72.060614
507.000000	71.820719
505.500000	71.633979
504.000000	71.468786
502.500000	71.353857
501.000000	71.269777
499.500000	71.213110
498.000000	71.273058
496.500000	71.301480
495.000000	71.352127
493.500000	71.492319
492.000000	71.604542
490.500000	71.723774
489.000000	71.823462
487.500000	71.983621
486.000000	72.151331
484.500000	72.332425
483.000000	72.685677
481.500000	73.129915
480.000000	73.280567
478.500000	73.045805
477.000000	72.823187
475.500000	72.679570
474.000000	72.566891
472.500000	72.485012
471.000000	72.358619
469.500000	72.181706
468.000000	71.948240
466.500000	71.669710
465.000000	71.378721
463.500000	71.160572
462.000000	70.927560
460.500000	70.757698
459.000000	70.640033
457.500000	70.554329
456.000000	70.494013
454.500000	70.437063
453.000000	70.417186
451.500000	70.397281
450.000000	70.402325
448.500000	70.371950
447.000000	70.327864
445.500000	70.357127
444.000000	70.656180
442.500000	70.844716
441.000000	70.807143
439.500000	70.718947
438.000000	70.613997
436.500000	70.514140
435.000000	70.436105
433.500000	70.368808
432.000000	70.334772
430.500000	70.252701
429.000000	70.154510
427.500000	70.182918
426.000000	70.083583
424.500000	70.000734
423.000000	69.968781
421.500000	69.914344
420.000000	69.796274
418.500000	69.768151
417.000000	69.763303
415.500000	69.613496
414.000000	69.473577
412.500000	69.408983
411.000000	69.402358
409.500000	69.314368
408.000000	69.124696
406.500000	69.194929
405.000000	69.007130
403.500000	68.946331
402.000000	68.774298
400.500000	68.778010
399.000000	68.700497
397.500000	68.479737
396.000000	68.401378
394.500000	68.303118
393.000000	68.235080
391.500000	68.061527
390.000000	67.931180
388.500000	67.801946
387.000000	67.563242
385.500000	67.497881
384.000000	67.292641
382.500000	67.087516
381.000000	66.940050
379.500000	66.455749
378.000000	66.481891
376.500000	67.036504
375.000000	67.100318
373.500000	66.354842
372.000000	65.421623
370.500000	64.510169
369.000000	63.449993
367.500000	62.146007
366.000000	60.523687
364.500000	58.753271
363.000000	56.657317
361.500000	54.159509
360.000000	51.074508
358.500000	47.572203
357.000000	43.559129
355.500000	39.057338
354.000000	33.971492
352.500000	28.696503
351.000000	23.275852
349.500000	18.077234
348.000000	13.215635
346.500000	9.076543
345.000000	5.718947
343.500000	3.240782
342.000000	1.613207
340.500000	0.730483
339.000000	0.272318
337.500000	0.110380
336.000000	0.070997
334.500000	0.052827
333.000000	0.059149
331.500000	0.063465
330.000000	0.067006
328.500000	0.047225
327.000000	0.070906
325.500000	0.057826
324.000000	0.050855
322.500000	0.057287
321.000000	0.069276
319.500000	0.064091
318.000000	0.010342
316.500000	-0.016330
315.000000	-0.022248
313.500000	-0.023212
312.000000	-0.023349
310.500000	-0.024127
309.000000	-0.019512
307.500000	-0.017852
306.000000	-0.011164
304.500000	-0.002086
303.000000	-0.005030
301.500000	-0.012355
300.000000	-0.015791
