PE UV       SUBTECH     SPECTRUM    ASCII       PEDS        4.00        
   -1
Sample141.Sample.Raw.asc
21/01/19
15:03:22.00
21/01/19
15:03:22.00
Administrator

300.000000
1
Lambda 850
850L1710193
PerkinElmer UV WinLab 6.4.0.973 / 2.02.06 Lambda 800 UV/VIS, Jan 28 2016 16:58:34

0
0
2
0
0
UV/VIS
1
1
1
RBeamAtt,SBeamAtt,60mm sphere
0
0
0
0
Fix
 
0
0.2
0
0
0
 
 
 
0
 
0
319.2
0
Front
100
 
S:100 R:100
 
0
0
0
 
0
 
 
 
0
 
 
0
0
0
0
0
 
 
 
 
0
0


0
0
#HDR
-1
-1
#GR
nm
%T
1.0
0.0
750.000000
-1.500000
301
8
74.399942
-0.026960
#DATA
750.000000	73.858609
748.500000	74.190450
747.000000	74.252808
745.500000	74.095248
744.000000	74.399942
742.500000	74.183159
741.000000	74.123266
739.500000	74.158264
738.000000	74.231269
736.500000	74.071834
735.000000	74.114597
733.500000	74.094764
732.000000	74.102021
730.500000	73.987880
729.000000	74.059142
727.500000	73.826379
726.000000	73.987179
724.500000	73.920500
723.000000	73.978927
721.500000	73.998123
720.000000	73.955664
718.500000	73.937840
717.000000	73.942744
715.500000	73.791848
714.000000	73.957192
712.500000	73.990987
711.000000	73.839447
709.500000	73.864218
708.000000	73.868585
706.500000	73.954803
705.000000	73.878965
703.500000	74.003040
702.000000	73.699894
700.500000	73.823444
699.000000	73.861530
697.500000	73.833441
696.000000	73.804384
694.500000	73.758119
693.000000	73.693956
691.500000	73.706360
690.000000	73.639339
688.500000	73.684448
687.000000	73.709710
685.500000	73.739255
684.000000	73.723064
682.500000	73.731977
681.000000	73.710676
679.500000	73.695630
678.000000	73.661109
676.500000	73.725876
675.000000	73.660511
673.500000	73.616358
672.000000	73.639522
670.500000	73.664669
669.000000	73.675223
667.500000	73.561581
666.000000	73.538529
664.500000	73.548447
663.000000	73.530773
661.500000	73.527723
660.000000	73.570845
658.500000	73.498466
657.000000	73.499145
655.500000	73.447285
654.000000	73.480215
652.500000	73.478881
651.000000	73.458404
649.500000	73.418180
648.000000	73.408269
646.500000	73.385000
645.000000	73.408027
643.500000	73.407520
642.000000	73.361336
640.500000	73.324561
639.000000	73.302179
637.500000	73.272318
636.000000	73.274872
634.500000	73.262212
633.000000	73.256020
631.500000	73.258349
630.000000	73.259004
628.500000	73.232131
627.000000	73.221077
625.500000	73.158934
624.000000	73.128362
622.500000	73.091901
621.000000	73.069908
619.500000	73.092355
618.000000	73.070102
616.500000	72.997465
615.000000	72.994342
613.500000	73.011162
612.000000	73.026100
610.500000	72.985984
609.000000	73.008170
607.500000	72.982124
606.000000	72.901318
604.500000	72.884231
603.000000	72.867091
601.500000	72.865094
600.000000	72.875863
598.500000	72.822849
597.000000	72.769972
595.500000	72.735954
594.000000	72.744318
592.500000	72.766054
591.000000	72.732435
589.500000	72.764280
588.000000	72.711702
586.500000	72.622021
585.000000	72.596820
583.500000	72.612813
582.000000	72.616455
580.500000	72.602899
579.000000	72.589664
577.500000	72.537847
576.000000	72.540324
574.500000	72.480419
573.000000	72.424783
571.500000	72.427731
570.000000	72.397134
568.500000	72.340759
567.000000	72.305064
565.500000	72.270463
564.000000	72.231256
562.500000	72.197219
561.000000	72.316430
559.500000	72.410096
558.000000	72.382160
556.500000	72.407626
555.000000	72.403862
553.500000	72.335068
552.000000	72.310863
550.500000	72.308538
549.000000	72.310464
547.500000	72.287401
546.000000	72.230959
544.500000	72.227164
543.000000	72.236036
541.500000	72.232364
540.000000	72.201815
538.500000	72.171478
537.000000	72.152568
535.500000	72.151860
534.000000	72.112835
532.500000	72.101297
531.000000	72.111044
529.500000	72.062419
528.000000	72.027443
526.500000	71.989206
525.000000	71.945590
523.500000	71.904244
522.000000	71.839216
520.500000	71.750271
519.000000	71.627688
517.500000	71.496599
516.000000	71.340227
514.500000	71.156883
513.000000	70.967937
511.500000	70.708462
510.000000	70.445085
508.500000	70.197176
507.000000	69.997900
505.500000	69.858838
504.000000	69.746299
502.500000	69.672323
501.000000	69.646651
499.500000	69.685651
498.000000	69.788289
496.500000	69.860653
495.000000	69.992768
493.500000	70.118884
492.000000	70.263897
490.500000	70.369428
489.000000	70.472931
487.500000	70.612110
486.000000	70.786344
484.500000	70.935137
483.000000	71.193515
481.500000	71.539155
480.000000	71.592892
478.500000	71.294896
477.000000	70.974882
475.500000	70.863918
474.000000	70.732696
472.500000	70.630626
471.000000	70.426689
469.500000	70.221300
468.000000	69.928107
466.500000	69.703301
465.000000	69.408035
463.500000	69.193557
462.000000	68.972158
460.500000	68.792656
459.000000	68.703322
457.500000	68.660195
456.000000	68.669748
454.500000	68.636519
453.000000	68.632520
451.500000	68.667895
450.000000	68.734540
448.500000	68.766452
447.000000	68.763701
445.500000	68.802269
444.000000	68.977237
442.500000	69.164607
441.000000	69.083729
439.500000	68.905890
438.000000	68.817356
436.500000	68.821616
435.000000	68.813752
433.500000	68.674036
432.000000	68.583488
430.500000	68.489162
429.000000	68.436946
427.500000	68.387827
426.000000	68.400847
424.500000	68.248964
423.000000	68.153435
421.500000	68.198315
420.000000	68.092730
418.500000	67.920316
417.000000	67.829840
415.500000	67.763919
414.000000	67.730242
412.500000	67.597661
411.000000	67.446355
409.500000	67.430893
408.000000	67.293471
406.500000	67.191153
405.000000	67.084984
403.500000	66.947647
402.000000	66.894121
400.500000	66.805179
399.000000	66.666491
397.500000	66.508910
396.000000	66.315542
394.500000	66.193125
393.000000	66.007514
391.500000	65.923089
390.000000	65.778741
388.500000	65.570547
387.000000	65.257847
385.500000	65.193562
384.000000	64.841092
382.500000	64.610743
381.000000	64.160572
379.500000	63.876779
378.000000	63.605496
376.500000	64.102610
375.000000	64.205995
373.500000	63.138312
372.000000	62.037767
370.500000	60.697396
369.000000	59.387780
367.500000	57.858421
366.000000	55.784769
364.500000	53.503060
363.000000	50.957648
361.500000	47.684420
360.000000	43.965299
358.500000	39.863958
357.000000	35.151922
355.500000	29.980304
354.000000	24.765930
352.500000	19.416763
351.000000	14.501816
349.500000	10.196015
348.000000	6.765950
346.500000	4.198793
345.000000	2.428086
343.500000	1.329284
342.000000	0.676114
340.500000	0.319621
339.000000	0.151674
337.500000	0.071969
336.000000	0.044885
334.500000	0.040658
333.000000	0.050905
331.500000	0.059364
330.000000	0.043576
328.500000	0.057977
327.000000	0.051943
325.500000	0.052454
324.000000	0.052226
322.500000	0.061532
321.000000	0.040178
319.500000	0.036894
318.000000	0.008287
316.500000	-0.017970
315.000000	-0.021172
313.500000	-0.015534
312.000000	-0.026960
310.500000	-0.015941
309.000000	-0.014548
307.500000	-0.012108
306.000000	-0.000759
304.500000	-0.002755
303.000000	-0.005142
301.500000	-0.004475
300.000000	-0.001906
