PE UV       SUBTECH     SPECTRUM    ASCII       PEDS        4.00        
   -1
Sample319.Sample.Raw.asc
21/03/25
15:33:36.00
21/03/25
15:33:36.00
Administrator

300.000000
1
Lambda 850
850L1710193
PerkinElmer UV WinLab 6.4.0.973 / 2.02.06 Lambda 800 UV/VIS, Jan 28 2016 16:58:34

0
0
2
0
0
UV/VIS
1
1
1
RBeamAtt,SBeamAtt,60mm sphere
0
0
0
0
Fix
 
0
0.2
0
0
0
 
 
 
0
 
0
340
0
Front
100
 
S:100 R:100
 
0
0
0
 
0
 
 
 
0
 
 
0
0
0
0
0
 
 
 
 
0
0


0
0
#HDR
-1
-1
#GR
nm
%T
1.0
0.0
750.000000
-1.500000
301
8
72.821918
-0.049536
#DATA
750.000000	72.568140
748.500000	72.756486
747.000000	72.755058
745.500000	72.821918
744.000000	72.785506
742.500000	72.769760
741.000000	72.699683
739.500000	72.527499
738.000000	72.720971
736.500000	72.718619
735.000000	72.652920
733.500000	72.512159
732.000000	72.555102
730.500000	72.452931
729.000000	72.410731
727.500000	72.407456
726.000000	72.530260
724.500000	72.516813
723.000000	72.505974
721.500000	72.454115
720.000000	72.348911
718.500000	72.395271
717.000000	72.293830
715.500000	72.358865
714.000000	72.269955
712.500000	72.089705
711.000000	72.092904
709.500000	72.198690
708.000000	72.193585
706.500000	72.090879
705.000000	72.164128
703.500000	72.051990
702.000000	72.099543
700.500000	72.072488
699.000000	72.031694
697.500000	72.043274
696.000000	71.993526
694.500000	71.959636
693.000000	71.916887
691.500000	71.753339
690.000000	71.654974
688.500000	71.942426
687.000000	71.817705
685.500000	71.822595
684.000000	71.808587
682.500000	71.688291
681.000000	71.611245
679.500000	71.635303
678.000000	71.497701
676.500000	71.414834
675.000000	71.455171
673.500000	71.448489
672.000000	71.462598
670.500000	71.386132
669.000000	71.275423
667.500000	71.264306
666.000000	71.214103
664.500000	71.081399
663.000000	71.067217
661.500000	71.099455
660.000000	71.034432
658.500000	70.863739
657.000000	70.811369
655.500000	70.788907
654.000000	70.727621
652.500000	70.582894
651.000000	70.548735
649.500000	70.406812
648.000000	70.326534
646.500000	70.329917
645.000000	70.263997
643.500000	70.140766
642.000000	70.022553
640.500000	70.007885
639.000000	69.881292
637.500000	69.798626
636.000000	69.739158
634.500000	69.652068
633.000000	69.544573
631.500000	69.461889
630.000000	69.371158
628.500000	69.269849
627.000000	69.185930
625.500000	69.092947
624.000000	68.972492
622.500000	68.848795
621.000000	68.810444
619.500000	68.682399
618.000000	68.564220
616.500000	68.453716
615.000000	68.363129
613.500000	68.277064
612.000000	68.156932
610.500000	68.039762
609.000000	67.975649
607.500000	67.852856
606.000000	67.725190
604.500000	67.613760
603.000000	67.523361
601.500000	67.398421
600.000000	67.305418
598.500000	67.201681
597.000000	67.050088
595.500000	66.943616
594.000000	66.861369
592.500000	66.744536
591.000000	66.661985
589.500000	66.547917
588.000000	66.406806
586.500000	66.270017
585.000000	66.216819
583.500000	66.173939
582.000000	66.046001
580.500000	65.906549
579.000000	65.800916
577.500000	65.681433
576.000000	65.577914
574.500000	65.525195
573.000000	65.443838
571.500000	65.317685
570.000000	65.188014
568.500000	65.070803
567.000000	64.951821
565.500000	64.855155
564.000000	64.772735
562.500000	64.681418
561.000000	64.760443
559.500000	64.812777
558.000000	64.694512
556.500000	64.621272
555.000000	64.541016
553.500000	64.433082
552.000000	64.389415
550.500000	64.317546
549.000000	64.207526
547.500000	64.166384
546.000000	64.117683
544.500000	64.024102
543.000000	63.968508
541.500000	63.963913
540.000000	63.922487
538.500000	63.872571
537.000000	63.811415
535.500000	63.765372
534.000000	63.724994
532.500000	63.693242
531.000000	63.658784
529.500000	63.586077
528.000000	63.534441
526.500000	63.488215
525.000000	63.410754
523.500000	63.336812
522.000000	63.266507
520.500000	63.144588
519.000000	63.016443
517.500000	62.868665
516.000000	62.700123
514.500000	62.490995
513.000000	62.233439
511.500000	61.955056
510.000000	61.659948
508.500000	61.391224
507.000000	61.076339
505.500000	60.806564
504.000000	60.607353
502.500000	60.423388
501.000000	60.236049
499.500000	60.085249
498.000000	60.005577
496.500000	59.960065
495.000000	59.894621
493.500000	59.862992
492.000000	59.854190
490.500000	59.900969
489.000000	59.918016
487.500000	60.007460
486.000000	60.137713
484.500000	60.318509
483.000000	60.611526
481.500000	61.002514
480.000000	61.198079
478.500000	61.040318
477.000000	60.883781
475.500000	60.788889
474.000000	60.701844
472.500000	60.604040
471.000000	60.510903
469.500000	60.280704
468.000000	60.067412
466.500000	59.821306
465.000000	59.514414
463.500000	59.300044
462.000000	59.044343
460.500000	58.795097
459.000000	58.605167
457.500000	58.481978
456.000000	58.334229
454.500000	58.208821
453.000000	58.094580
451.500000	57.978006
450.000000	57.881693
448.500000	57.813098
447.000000	57.743688
445.500000	57.672742
444.000000	57.826651
442.500000	57.920575
441.000000	57.816839
439.500000	57.588557
438.000000	57.526314
436.500000	57.468404
435.000000	57.404932
433.500000	57.355078
432.000000	57.262668
430.500000	57.127520
429.000000	57.035016
427.500000	56.904998
426.000000	56.836099
424.500000	56.695378
423.000000	56.637688
421.500000	56.501024
420.000000	56.379692
418.500000	56.318887
417.000000	56.244429
415.500000	56.109463
414.000000	56.005962
412.500000	55.955370
411.000000	55.817013
409.500000	55.737424
408.000000	55.516881
406.500000	55.436416
405.000000	55.396115
403.500000	55.261106
402.000000	55.135826
400.500000	55.025608
399.000000	54.938786
397.500000	54.827341
396.000000	54.698841
394.500000	54.574757
393.000000	54.478593
391.500000	54.392621
390.000000	54.240897
388.500000	54.070190
387.000000	53.996191
385.500000	53.735997
384.000000	53.665448
382.500000	53.434302
381.000000	53.231623
379.500000	53.060142
378.000000	53.010460
376.500000	53.253252
375.000000	53.558705
373.500000	52.857543
372.000000	52.179290
370.500000	51.440812
369.000000	50.528640
367.500000	49.463929
366.000000	48.347261
364.500000	47.105873
363.000000	45.346981
361.500000	43.450529
360.000000	41.139568
358.500000	38.519472
357.000000	35.319761
355.500000	31.846128
354.000000	27.829976
352.500000	23.676380
351.000000	19.425483
349.500000	15.236812
348.000000	11.307967
346.500000	7.839816
345.000000	4.985987
343.500000	2.890046
342.000000	1.491227
340.500000	0.651929
339.000000	0.186763
337.500000	0.010961
336.000000	-0.049536
334.500000	-0.046397
333.000000	-0.039271
331.500000	-0.045232
330.000000	-0.041568
328.500000	-0.035363
327.000000	-0.045607
325.500000	-0.044872
324.000000	-0.034944
322.500000	-0.037673
321.000000	-0.043146
319.500000	-0.029280
318.000000	0.017235
316.500000	-0.018339
315.000000	-0.019498
313.500000	-0.022771
312.000000	-0.016778
310.500000	-0.016795
309.000000	-0.013234
307.500000	-0.004541
306.000000	0.000285
304.500000	-0.002468
303.000000	0.001997
301.500000	-0.003618
300.000000	-0.004955
