PE UV       SUBTECH     SPECTRUM    ASCII       PEDS        4.00        
   -1
Sample170.Sample.Raw.asc
21/01/27
14:34:09.00
21/01/27
14:34:09.00
Administrator

300.000000
1
Lambda 850
850L1710193
PerkinElmer UV WinLab 6.4.0.973 / 2.02.06 Lambda 800 UV/VIS, Jan 28 2016 16:58:34

0
0
2
0
0
UV/VIS
1
1
1
RBeamAtt,SBeamAtt,60mm sphere
0
0
0
0
Fix
 
0
0.2
0
0
0
 
 
 
0
 
0
319.2
0
Front
100
 
S:100 R:100
 
0
0
0
 
0
 
 
 
0
 
 
0
0
0
0
0
 
 
 
 
0
0


0
0
#HDR
-1
-1
#GR
nm
%T
1.0
0.0
750.000000
-1.500000
301
8
74.827530
-0.029664
#DATA
750.000000	74.572227
748.500000	74.827530
747.000000	74.735417
745.500000	74.661147
744.000000	74.684212
742.500000	74.612950
741.000000	74.654722
739.500000	74.670882
738.000000	74.747483
736.500000	74.589631
735.000000	74.743306
733.500000	74.649224
732.000000	74.561226
730.500000	74.419812
729.000000	74.493078
727.500000	74.490594
726.000000	74.429463
724.500000	74.549200
723.000000	74.450600
721.500000	74.514925
720.000000	74.336329
718.500000	74.412388
717.000000	74.424700
715.500000	74.437886
714.000000	74.303394
712.500000	74.340464
711.000000	74.260912
709.500000	74.248062
708.000000	74.219364
706.500000	74.261718
705.000000	74.302365
703.500000	74.179990
702.000000	74.268125
700.500000	74.208529
699.000000	74.274673
697.500000	74.204594
696.000000	74.108763
694.500000	74.208160
693.000000	74.121118
691.500000	73.992664
690.000000	73.914912
688.500000	74.006790
687.000000	74.012640
685.500000	74.037467
684.000000	74.029345
682.500000	73.950944
681.000000	73.870232
679.500000	73.911346
678.000000	73.928334
676.500000	73.914775
675.000000	73.947682
673.500000	73.940446
672.000000	73.864229
670.500000	73.799159
669.000000	73.830237
667.500000	73.772345
666.000000	73.737363
664.500000	73.664609
663.000000	73.667412
661.500000	73.613556
660.000000	73.713159
658.500000	73.647238
657.000000	73.603081
655.500000	73.451798
654.000000	73.428493
652.500000	73.388815
651.000000	73.421157
649.500000	73.368599
648.000000	73.315733
646.500000	73.246752
645.000000	73.269291
643.500000	73.278430
642.000000	73.146622
640.500000	73.106385
639.000000	73.107174
637.500000	73.099553
636.000000	73.012031
634.500000	72.932472
633.000000	72.860068
631.500000	72.885982
630.000000	72.872925
628.500000	72.816445
627.000000	72.743538
625.500000	72.685482
624.000000	72.669302
622.500000	72.612416
621.000000	72.571065
619.500000	72.564520
618.000000	72.483074
616.500000	72.424566
615.000000	72.396601
613.500000	72.402543
612.000000	72.329980
610.500000	72.231659
609.000000	72.173857
607.500000	72.117752
606.000000	72.059019
604.500000	72.013450
603.000000	71.996225
601.500000	71.956729
600.000000	71.911950
598.500000	71.835615
597.000000	71.764074
595.500000	71.727287
594.000000	71.653981
592.500000	71.613219
591.000000	71.538247
589.500000	71.497886
588.000000	71.469139
586.500000	71.396829
585.000000	71.378773
583.500000	71.314703
582.000000	71.225390
580.500000	71.185648
579.000000	71.151210
577.500000	71.126865
576.000000	71.052105
574.500000	70.977015
573.000000	70.952885
571.500000	70.922199
570.000000	70.842005
568.500000	70.749493
567.000000	70.694691
565.500000	70.626804
564.000000	70.572197
562.500000	70.535355
561.000000	70.589076
559.500000	70.685971
558.000000	70.693837
556.500000	70.634967
555.000000	70.580668
553.500000	70.586990
552.000000	70.576972
550.500000	70.534867
549.000000	70.483364
547.500000	70.435698
546.000000	70.426949
544.500000	70.426997
543.000000	70.396091
541.500000	70.361548
540.000000	70.311294
538.500000	70.281190
537.000000	70.313910
535.500000	70.303362
534.000000	70.284418
532.500000	70.271092
531.000000	70.253546
529.500000	70.238384
528.000000	70.216778
526.500000	70.201949
525.000000	70.148210
523.500000	70.085340
522.000000	70.045176
520.500000	69.989799
519.000000	69.898420
517.500000	69.772144
516.000000	69.595792
514.500000	69.393025
513.000000	69.179084
511.500000	68.937896
510.000000	68.679315
508.500000	68.429118
507.000000	68.148002
505.500000	67.915190
504.000000	67.727931
502.500000	67.578160
501.000000	67.487206
499.500000	67.450073
498.000000	67.371628
496.500000	67.376971
495.000000	67.408510
493.500000	67.448408
492.000000	67.523432
490.500000	67.594735
489.000000	67.722614
487.500000	67.837843
486.000000	67.943170
484.500000	68.163400
483.000000	68.578193
481.500000	68.938669
480.000000	69.114270
478.500000	68.927913
477.000000	68.712011
475.500000	68.639560
474.000000	68.544184
472.500000	68.426034
471.000000	68.265301
469.500000	68.074776
468.000000	67.877284
466.500000	67.632662
465.000000	67.382256
463.500000	67.087897
462.000000	66.860892
460.500000	66.652478
459.000000	66.522730
457.500000	66.426513
456.000000	66.348721
454.500000	66.256514
453.000000	66.192168
451.500000	66.191028
450.000000	66.094924
448.500000	66.095679
447.000000	66.018082
445.500000	65.966526
444.000000	66.213462
442.500000	66.401594
441.000000	66.264065
439.500000	66.169369
438.000000	66.041403
436.500000	65.992794
435.000000	65.941417
433.500000	65.862201
432.000000	65.766481
430.500000	65.709854
429.000000	65.660513
427.500000	65.545129
426.000000	65.494569
424.500000	65.429930
423.000000	65.392910
421.500000	65.261771
420.000000	65.220717
418.500000	65.126157
417.000000	65.112991
415.500000	65.001225
414.000000	64.867205
412.500000	64.784734
411.000000	64.699304
409.500000	64.622143
408.000000	64.506803
406.500000	64.461117
405.000000	64.455796
403.500000	64.279749
402.000000	64.202265
400.500000	64.103223
399.000000	64.018186
397.500000	63.902560
396.000000	63.781899
394.500000	63.714042
393.000000	63.620929
391.500000	63.516871
390.000000	63.408769
388.500000	63.267195
387.000000	63.202543
385.500000	63.058329
384.000000	62.831773
382.500000	62.598342
381.000000	62.502454
379.500000	62.210358
378.000000	62.090584
376.500000	62.682146
375.000000	62.789402
373.500000	62.060233
372.000000	61.290871
370.500000	60.233375
369.000000	59.163011
367.500000	58.083928
366.000000	56.536975
364.500000	54.847087
363.000000	52.931258
361.500000	50.530333
360.000000	47.589702
358.500000	44.198168
357.000000	40.227426
355.500000	35.866644
354.000000	31.052715
352.500000	25.989987
351.000000	20.867418
349.500000	15.935912
348.000000	11.475052
346.500000	7.657533
345.000000	4.675230
343.500000	2.548443
342.000000	1.207571
340.500000	0.501182
339.000000	0.182382
337.500000	0.068869
336.000000	0.041529
334.500000	0.040861
333.000000	0.041916
331.500000	0.042481
330.000000	0.039602
328.500000	0.045032
327.000000	0.051537
325.500000	0.046927
324.000000	0.047604
322.500000	0.048163
321.000000	0.053238
319.500000	0.043163
318.000000	0.001413
316.500000	-0.024067
315.000000	-0.023788
313.500000	-0.029664
312.000000	-0.024504
310.500000	-0.024255
309.000000	-0.018612
307.500000	-0.015168
306.000000	-0.011205
304.500000	-0.007424
303.000000	-0.008093
301.500000	-0.011726
300.000000	-0.010958
