PE UV       SUBTECH     SPECTRUM    ASCII       PEDS        4.00        
   -1
Sample233.Sample.Raw.asc
21/02/05
14:48:06.00
21/02/05
14:48:06.00
Administrator

300.000000
1
Lambda 850
850L1710193
PerkinElmer UV WinLab 6.4.0.973 / 2.02.06 Lambda 800 UV/VIS, Jan 28 2016 16:58:34

0
0
2
0
0
UV/VIS
1
1
1
RBeamAtt,SBeamAtt,60mm sphere
0
0
0
0
Fix
 
0
0.2
0
0
0
 
 
 
0
 
0
340
0
Front
100
 
S:100 R:100
 
0
0
0
 
0
 
 
 
0
 
 
0
0
0
0
0
 
 
 
 
0
0


0
0
#HDR
-1
-1
#GR
nm
%T
1.0
0.0
750.000000
-1.500000
301
8
75.804618
-0.052923
#DATA
750.000000	75.465945
748.500000	75.742368
747.000000	75.768590
745.500000	75.600443
744.000000	75.699694
742.500000	75.804618
741.000000	75.792519
739.500000	75.743469
738.000000	75.636561
736.500000	75.762124
735.000000	75.590693
733.500000	75.669352
732.000000	75.655798
730.500000	75.577633
729.000000	75.587368
727.500000	75.622874
726.000000	75.655415
724.500000	75.549234
723.000000	75.556818
721.500000	75.515779
720.000000	75.506672
718.500000	75.493688
717.000000	75.605684
715.500000	75.518213
714.000000	75.531287
712.500000	75.635821
711.000000	75.507838
709.500000	75.476266
708.000000	75.454194
706.500000	75.543629
705.000000	75.657485
703.500000	75.420901
702.000000	75.457840
700.500000	75.413772
699.000000	75.487944
697.500000	75.417886
696.000000	75.372313
694.500000	75.314397
693.000000	75.345865
691.500000	75.367391
690.000000	75.159087
688.500000	75.368855
687.000000	75.341881
685.500000	75.329945
684.000000	75.320624
682.500000	75.300304
681.000000	75.335188
679.500000	75.346333
678.000000	75.292034
676.500000	75.348215
675.000000	75.269260
673.500000	75.227824
672.000000	75.243971
670.500000	75.258361
669.000000	75.229274
667.500000	75.222872
666.000000	75.192791
664.500000	75.197190
663.000000	75.194196
661.500000	75.103640
660.000000	75.098792
658.500000	75.103932
657.000000	75.065459
655.500000	75.142660
654.000000	75.113342
652.500000	75.090087
651.000000	75.041683
649.500000	75.048197
648.000000	75.062137
646.500000	75.070148
645.000000	75.075623
643.500000	74.983075
642.000000	74.970015
640.500000	74.992900
639.000000	74.976429
637.500000	74.958779
636.000000	74.905900
634.500000	74.882070
633.000000	74.914623
631.500000	74.923784
630.000000	74.901567
628.500000	74.892573
627.000000	74.798436
625.500000	74.846151
624.000000	74.857667
622.500000	74.865902
621.000000	74.832235
619.500000	74.782113
618.000000	74.793325
616.500000	74.768826
615.000000	74.705048
613.500000	74.712393
612.000000	74.696606
610.500000	74.713734
609.000000	74.701730
607.500000	74.648216
606.000000	74.634555
604.500000	74.655898
603.000000	74.637319
601.500000	74.632540
600.000000	74.630737
598.500000	74.580916
597.000000	74.591470
595.500000	74.572702
594.000000	74.546244
592.500000	74.529580
591.000000	74.516573
589.500000	74.485864
588.000000	74.513791
586.500000	74.488419
585.000000	74.453107
583.500000	74.433916
582.000000	74.402715
580.500000	74.407329
579.000000	74.366195
577.500000	74.342282
576.000000	74.315620
574.500000	74.306610
573.000000	74.307057
571.500000	74.296061
570.000000	74.258232
568.500000	74.233372
567.000000	74.195611
565.500000	74.137368
564.000000	74.082028
562.500000	74.077050
561.000000	74.259964
559.500000	74.400609
558.000000	74.367423
556.500000	74.376811
555.000000	74.376814
553.500000	74.368984
552.000000	74.380899
550.500000	74.359808
549.000000	74.340922
547.500000	74.341372
546.000000	74.355198
544.500000	74.348236
543.000000	74.340996
541.500000	74.352344
540.000000	74.337688
538.500000	74.340683
537.000000	74.353678
535.500000	74.351866
534.000000	74.389261
532.500000	74.377749
531.000000	74.363382
529.500000	74.416327
528.000000	74.409776
526.500000	74.373313
525.000000	74.373049
523.500000	74.340953
522.000000	74.273724
520.500000	74.211985
519.000000	74.135799
517.500000	74.032806
516.000000	73.866562
514.500000	73.644421
513.000000	73.452631
511.500000	73.251445
510.000000	72.971069
508.500000	72.710481
507.000000	72.490424
505.500000	72.266116
504.000000	72.131008
502.500000	72.042732
501.000000	71.965826
499.500000	71.977745
498.000000	71.988835
496.500000	72.051668
495.000000	72.126881
493.500000	72.222687
492.000000	72.357902
490.500000	72.472513
489.000000	72.609841
487.500000	72.811215
486.000000	72.971492
484.500000	73.146906
483.000000	73.515349
481.500000	73.962103
480.000000	74.084168
478.500000	73.854624
477.000000	73.606862
475.500000	73.525275
474.000000	73.445808
472.500000	73.333467
471.000000	73.201983
469.500000	73.008501
468.000000	72.759778
466.500000	72.502478
465.000000	72.207726
463.500000	72.007103
462.000000	71.768830
460.500000	71.656023
459.000000	71.549708
457.500000	71.401112
456.000000	71.368340
454.500000	71.354118
453.000000	71.337572
451.500000	71.357182
450.000000	71.306298
448.500000	71.325751
447.000000	71.299394
445.500000	71.312473
444.000000	71.632629
442.500000	71.788066
441.000000	71.653276
439.500000	71.610679
438.000000	71.533894
436.500000	71.427359
435.000000	71.350232
433.500000	71.350348
432.000000	71.279348
430.500000	71.262978
429.000000	71.169723
427.500000	71.165841
426.000000	71.101451
424.500000	71.100811
423.000000	70.878518
421.500000	70.835654
420.000000	70.845785
418.500000	70.756523
417.000000	70.696004
415.500000	70.653356
414.000000	70.527290
412.500000	70.528428
411.000000	70.462056
409.500000	70.353909
408.000000	70.206582
406.500000	70.175099
405.000000	70.179854
403.500000	70.106222
402.000000	70.041679
400.500000	69.893632
399.000000	69.805496
397.500000	69.720734
396.000000	69.619739
394.500000	69.490662
393.000000	69.371275
391.500000	69.332223
390.000000	69.194959
388.500000	69.024279
387.000000	68.855909
385.500000	68.792808
384.000000	68.476230
382.500000	68.326291
381.000000	68.022466
379.500000	67.816403
378.000000	67.582873
376.500000	68.453153
375.000000	68.376630
373.500000	67.642862
372.000000	66.877739
370.500000	65.558105
369.000000	64.522929
367.500000	63.344494
366.000000	61.837980
364.500000	60.049945
363.000000	57.840615
361.500000	55.278346
360.000000	52.178477
358.500000	48.856556
357.000000	44.685495
355.500000	40.036255
354.000000	35.019101
352.500000	29.686136
351.000000	24.120825
349.500000	18.868293
348.000000	13.880682
346.500000	9.583557
345.000000	6.066737
343.500000	3.483298
342.000000	1.748712
340.500000	0.775385
339.000000	0.238705
337.500000	0.029292
336.000000	-0.047905
334.500000	-0.052923
333.000000	-0.047777
331.500000	-0.033872
330.000000	-0.034813
328.500000	-0.032966
327.000000	-0.032041
325.500000	-0.045158
324.000000	-0.036745
322.500000	-0.031921
321.000000	-0.032750
319.500000	-0.023002
318.000000	0.004332
316.500000	-0.017846
315.000000	-0.018055
313.500000	-0.024179
312.000000	-0.033211
310.500000	-0.027321
309.000000	-0.025166
307.500000	-0.019753
306.000000	-0.008716
304.500000	-0.008450
303.000000	-0.012826
301.500000	-0.019870
300.000000	-0.020916
