PE UV       SUBTECH     SPECTRUM    ASCII       PEDS        4.00        
   -1
Sample88.Sample.Raw.asc
20/12/16
16:53:32.00
20/12/16
16:53:32.00
Administrator

300.000000
1
Lambda 850
850L1710193
PerkinElmer UV WinLab 6.4.0.973 / 2.02.06 Lambda 800 UV/VIS, Jan 28 2016 16:58:34

0
0
2
0
0
UV/VIS
1
1
1
RBeamAtt,SBeamAtt,60mm sphere
0
0
0
0
Fix
 
0
0.2
0
0
0
 
 
 
0
 
0
319.2
0
Front
100
 
S:100 R:100
 
0
0
0
 
0
 
 
 
0
 
 
0
0
0
0
0
 
 
 
 
0
0


0
0
#HDR
-1
-1
#GR
nm
%T
1.0
0.0
750.000000
-1.500000
301
8
75.691805
-0.041022
#DATA
750.000000	75.293207
748.500000	75.691805
747.000000	75.560983
745.500000	75.532274
744.000000	75.570051
742.500000	75.430477
741.000000	75.656284
739.500000	75.392343
738.000000	75.452513
736.500000	75.516450
735.000000	75.463562
733.500000	75.554433
732.000000	75.659407
730.500000	75.341607
729.000000	75.443103
727.500000	75.425855
726.000000	75.473515
724.500000	75.409309
723.000000	75.355352
721.500000	75.422520
720.000000	75.391148
718.500000	75.288791
717.000000	75.389077
715.500000	75.207880
714.000000	75.386516
712.500000	75.343233
711.000000	75.255193
709.500000	75.166704
708.000000	75.327561
706.500000	75.264628
705.000000	75.221045
703.500000	75.196601
702.000000	75.208919
700.500000	75.335095
699.000000	75.160597
697.500000	75.146253
696.000000	75.252509
694.500000	75.101941
693.000000	75.122208
691.500000	75.061848
690.000000	74.951711
688.500000	75.172121
687.000000	75.163680
685.500000	75.036422
684.000000	75.073181
682.500000	75.050272
681.000000	75.098020
679.500000	75.147501
678.000000	75.079474
676.500000	74.968126
675.000000	75.078360
673.500000	75.033526
672.000000	74.966443
670.500000	74.983718
669.000000	74.966500
667.500000	74.890619
666.000000	74.870663
664.500000	74.950971
663.000000	74.935368
661.500000	74.858447
660.000000	74.928078
658.500000	74.854509
657.000000	74.847337
655.500000	74.841277
654.000000	74.840611
652.500000	74.845237
651.000000	74.825491
649.500000	74.745913
648.000000	74.675646
646.500000	74.743633
645.000000	74.719171
643.500000	74.732917
642.000000	74.693209
640.500000	74.653188
639.000000	74.654083
637.500000	74.652970
636.000000	74.607429
634.500000	74.600634
633.000000	74.626354
631.500000	74.599569
630.000000	74.577708
628.500000	74.608293
627.000000	74.572384
625.500000	74.548234
624.000000	74.467645
622.500000	74.510429
621.000000	74.555136
619.500000	74.517244
618.000000	74.514200
616.500000	74.510514
615.000000	74.426707
613.500000	74.386331
612.000000	74.332540
610.500000	74.330932
609.000000	74.347388
607.500000	74.341962
606.000000	74.294631
604.500000	74.330591
603.000000	74.325411
601.500000	74.265499
600.000000	74.240163
598.500000	74.241520
597.000000	74.190341
595.500000	74.175422
594.000000	74.187053
592.500000	74.141381
591.000000	74.085832
589.500000	74.067570
588.000000	74.055804
586.500000	74.050509
585.000000	74.047329
583.500000	74.015137
582.000000	73.999870
580.500000	73.985158
579.000000	73.994238
577.500000	73.961459
576.000000	73.917868
574.500000	73.919942
573.000000	73.887735
571.500000	73.833267
570.000000	73.805349
568.500000	73.785347
567.000000	73.745285
565.500000	73.731088
564.000000	73.685031
562.500000	73.643222
561.000000	73.801759
559.500000	73.919771
558.000000	73.894631
556.500000	73.878481
555.000000	73.921575
553.500000	73.910818
552.000000	73.878185
550.500000	73.878509
549.000000	73.876891
547.500000	73.879803
546.000000	73.832578
544.500000	73.824556
543.000000	73.824635
541.500000	73.814287
540.000000	73.826256
538.500000	73.827460
537.000000	73.830639
535.500000	73.844064
534.000000	73.853557
532.500000	73.855751
531.000000	73.846028
529.500000	73.829867
528.000000	73.824310
526.500000	73.827991
525.000000	73.779818
523.500000	73.712861
522.000000	73.675500
520.500000	73.639575
519.000000	73.535268
517.500000	73.415063
516.000000	73.244454
514.500000	73.044543
513.000000	72.845293
511.500000	72.586659
510.000000	72.320259
508.500000	72.059458
507.000000	71.821874
505.500000	71.630347
504.000000	71.485296
502.500000	71.387551
501.000000	71.293399
499.500000	71.245490
498.000000	71.348476
496.500000	71.385282
495.000000	71.377368
493.500000	71.506409
492.000000	71.647266
490.500000	71.745195
489.000000	71.862258
487.500000	72.038245
486.000000	72.193433
484.500000	72.338503
483.000000	72.721624
481.500000	73.209147
480.000000	73.345884
478.500000	73.082235
477.000000	72.799480
475.500000	72.689168
474.000000	72.585917
472.500000	72.450795
471.000000	72.287182
469.500000	72.095833
468.000000	71.865488
466.500000	71.591120
465.000000	71.276475
463.500000	71.021983
462.000000	70.816414
460.500000	70.655713
459.000000	70.507774
457.500000	70.407877
456.000000	70.316638
454.500000	70.267998
453.000000	70.301805
451.500000	70.268583
450.000000	70.295135
448.500000	70.269548
447.000000	70.223857
445.500000	70.255098
444.000000	70.553445
442.500000	70.718490
441.000000	70.664127
439.500000	70.596538
438.000000	70.471205
436.500000	70.404831
435.000000	70.399534
433.500000	70.298465
432.000000	70.241079
430.500000	70.198355
429.000000	70.185331
427.500000	70.143305
426.000000	70.068244
424.500000	69.991286
423.000000	70.001790
421.500000	69.880978
420.000000	69.801686
418.500000	69.765526
417.000000	69.683228
415.500000	69.622745
414.000000	69.519113
412.500000	69.390681
411.000000	69.370182
409.500000	69.274934
408.000000	69.099495
406.500000	69.114534
405.000000	68.962166
403.500000	68.882258
402.000000	68.837703
400.500000	68.684959
399.000000	68.614728
397.500000	68.450778
396.000000	68.384218
394.500000	68.222618
393.000000	68.151162
391.500000	67.916727
390.000000	67.799353
388.500000	67.670555
387.000000	67.550394
385.500000	67.294906
384.000000	67.167052
382.500000	66.906191
381.000000	66.617755
379.500000	66.234232
378.000000	66.338454
376.500000	66.719282
375.000000	66.791742
373.500000	65.910914
372.000000	65.177176
370.500000	64.200583
369.000000	63.081632
367.500000	61.620847
366.000000	60.121405
364.500000	58.365959
363.000000	56.120058
361.500000	53.618348
360.000000	50.533207
358.500000	47.111702
357.000000	42.901654
355.500000	38.480699
354.000000	33.473033
352.500000	28.214645
351.000000	22.889393
349.500000	17.699891
348.000000	12.952109
346.500000	8.851953
345.000000	5.547214
343.500000	3.151177
342.000000	1.563539
340.500000	0.670373
339.000000	0.246797
337.500000	0.100026
336.000000	0.053965
334.500000	0.048572
333.000000	0.060261
331.500000	0.062257
330.000000	0.074895
328.500000	0.060890
327.000000	0.074804
325.500000	0.075396
324.000000	0.064361
322.500000	0.061007
321.000000	0.054006
319.500000	0.065394
318.000000	-0.010906
316.500000	-0.036977
315.000000	-0.041022
313.500000	-0.036180
312.000000	-0.028904
310.500000	-0.028934
309.000000	-0.025168
307.500000	-0.020686
306.000000	-0.012962
304.500000	-0.009578
303.000000	-0.007118
301.500000	-0.011310
300.000000	-0.007230
