PE UV       SUBTECH     SPECTRUM    ASCII       PEDS        4.00        
   -1
Sample93.Sample.Raw.asc
20/12/16
17:07:51.00
20/12/16
17:07:51.00
Administrator

300.000000
1
Lambda 850
850L1710193
PerkinElmer UV WinLab 6.4.0.973 / 2.02.06 Lambda 800 UV/VIS, Jan 28 2016 16:58:34

0
0
2
0
0
UV/VIS
1
1
1
RBeamAtt,SBeamAtt,60mm sphere
0
0
0
0
Fix
 
0
0.2
0
0
0
 
 
 
0
 
0
319.2
0
Front
100
 
S:100 R:100
 
0
0
0
 
0
 
 
 
0
 
 
0
0
0
0
0
 
 
 
 
0
0


0
0
#HDR
-1
-1
#GR
nm
%T
1.0
0.0
750.000000
-1.500000
301
8
75.743999
-0.041255
#DATA
750.000000	75.217224
748.500000	75.743999
747.000000	75.458770
745.500000	75.632506
744.000000	75.543682
742.500000	75.425074
741.000000	75.595766
739.500000	75.400568
738.000000	75.529094
736.500000	75.425284
735.000000	75.490751
733.500000	75.575246
732.000000	75.546025
730.500000	75.435043
729.000000	75.328189
727.500000	75.464604
726.000000	75.554700
724.500000	75.512955
723.000000	75.476361
721.500000	75.375813
720.000000	75.369946
718.500000	75.277585
717.000000	75.270692
715.500000	75.310135
714.000000	75.362769
712.500000	75.328581
711.000000	75.329621
709.500000	75.219819
708.000000	75.367428
706.500000	75.215448
705.000000	75.232943
703.500000	75.199534
702.000000	75.192370
700.500000	75.309055
699.000000	75.164183
697.500000	75.152369
696.000000	75.261168
694.500000	75.121125
693.000000	75.177584
691.500000	75.120960
690.000000	75.034201
688.500000	75.244081
687.000000	75.199607
685.500000	75.053509
684.000000	75.073181
682.500000	75.053708
681.000000	75.164036
679.500000	75.128318
678.000000	75.067512
676.500000	74.967143
675.000000	75.054085
673.500000	75.067482
672.000000	74.954888
670.500000	75.028668
669.000000	74.982583
667.500000	74.948775
666.000000	74.940387
664.500000	74.916082
663.000000	74.883006
661.500000	74.898246
660.000000	74.968073
658.500000	74.903533
657.000000	74.909839
655.500000	74.870950
654.000000	74.844885
652.500000	74.857322
651.000000	74.881817
649.500000	74.813017
648.000000	74.767890
646.500000	74.735002
645.000000	74.765551
643.500000	74.776364
642.000000	74.760776
640.500000	74.722711
639.000000	74.673997
637.500000	74.692970
636.000000	74.692143
634.500000	74.692428
633.000000	74.685660
631.500000	74.632517
630.000000	74.609088
628.500000	74.575182
627.000000	74.587381
625.500000	74.578977
624.000000	74.505045
622.500000	74.534335
621.000000	74.602244
619.500000	74.559888
618.000000	74.466375
616.500000	74.480992
615.000000	74.500361
613.500000	74.469124
612.000000	74.417044
610.500000	74.392772
609.000000	74.367515
607.500000	74.356563
606.000000	74.323834
604.500000	74.336864
603.000000	74.323017
601.500000	74.263024
600.000000	74.249733
598.500000	74.248121
597.000000	74.247363
595.500000	74.248860
594.000000	74.198602
592.500000	74.106163
591.000000	74.087646
589.500000	74.151247
588.000000	74.121064
586.500000	74.103805
585.000000	74.072329
583.500000	74.021983
582.000000	74.022804
580.500000	74.007928
579.000000	74.001088
577.500000	73.996366
576.000000	73.969597
574.500000	73.943624
573.000000	73.915788
571.500000	73.903299
570.000000	73.879499
568.500000	73.864617
567.000000	73.834026
565.500000	73.772652
564.000000	73.712331
562.500000	73.677509
561.000000	73.838049
559.500000	73.983181
558.000000	73.950095
556.500000	73.968211
555.000000	73.997385
553.500000	73.938062
552.000000	73.896345
550.500000	73.899972
549.000000	73.913295
547.500000	73.929748
546.000000	73.890026
544.500000	73.879776
543.000000	73.891496
541.500000	73.880231
540.000000	73.877832
538.500000	73.870951
537.000000	73.885361
535.500000	73.908027
534.000000	73.913155
532.500000	73.917167
531.000000	73.899190
529.500000	73.863466
528.000000	73.886898
526.500000	73.888606
525.000000	73.849342
523.500000	73.800217
522.000000	73.753294
520.500000	73.673111
519.000000	73.566155
517.500000	73.466433
516.000000	73.289221
514.500000	73.073368
513.000000	72.865444
511.500000	72.636861
510.000000	72.397787
508.500000	72.118567
507.000000	71.881631
505.500000	71.693164
504.000000	71.532186
502.500000	71.436606
501.000000	71.338413
499.500000	71.287947
498.000000	71.373367
496.500000	71.392810
495.000000	71.409892
493.500000	71.554564
492.000000	71.691069
490.500000	71.817925
489.000000	71.929632
487.500000	72.072915
486.000000	72.239446
484.500000	72.418775
483.000000	72.803276
481.500000	73.260631
480.000000	73.367126
478.500000	73.110226
477.000000	72.902990
475.500000	72.779976
474.000000	72.639492
472.500000	72.529827
471.000000	72.388662
469.500000	72.195392
468.000000	71.958250
466.500000	71.657292
465.000000	71.356490
463.500000	71.117372
462.000000	70.872070
460.500000	70.706372
459.000000	70.582638
457.500000	70.475989
456.000000	70.434194
454.500000	70.399354
453.000000	70.398608
451.500000	70.334016
450.000000	70.309399
448.500000	70.302430
447.000000	70.328198
445.500000	70.385121
444.000000	70.667995
442.500000	70.793521
441.000000	70.774307
439.500000	70.702564
438.000000	70.598206
436.500000	70.532204
435.000000	70.451490
433.500000	70.360908
432.000000	70.334183
430.500000	70.279117
429.000000	70.246131
427.500000	70.241999
426.000000	70.154887
424.500000	70.116049
423.000000	69.999848
421.500000	69.994425
420.000000	69.955009
418.500000	69.906505
417.000000	69.880532
415.500000	69.748924
414.000000	69.596082
412.500000	69.552504
411.000000	69.499314
409.500000	69.414964
408.000000	69.253788
406.500000	69.206721
405.000000	69.054079
403.500000	68.906849
402.000000	68.836053
400.500000	68.812196
399.000000	68.694721
397.500000	68.572757
396.000000	68.484712
394.500000	68.401801
393.000000	68.262078
391.500000	68.042374
390.000000	67.923263
388.500000	67.764978
387.000000	67.575197
385.500000	67.451206
384.000000	67.292821
382.500000	67.032634
381.000000	66.756228
379.500000	66.379215
378.000000	66.419210
376.500000	67.007116
375.000000	66.923130
373.500000	66.031820
372.000000	65.098366
370.500000	64.250646
369.000000	63.066215
367.500000	61.656952
366.000000	60.057867
364.500000	58.220956
363.000000	55.938721
361.500000	53.486717
360.000000	50.385605
358.500000	46.721631
357.000000	42.494176
355.500000	37.997752
354.000000	32.998427
352.500000	27.734257
351.000000	22.326988
349.500000	17.202899
348.000000	12.507749
346.500000	8.506125
345.000000	5.278219
343.500000	2.957877
342.000000	1.467064
340.500000	0.628018
339.000000	0.241434
337.500000	0.103632
336.000000	0.056557
334.500000	0.044131
333.000000	0.045150
331.500000	0.059562
330.000000	0.062273
328.500000	0.065539
327.000000	0.077217
325.500000	0.071771
324.000000	0.060542
322.500000	0.081745
321.000000	0.077750
319.500000	0.063812
318.000000	-0.010530
316.500000	-0.036414
315.000000	-0.035672
313.500000	-0.041255
312.000000	-0.033800
310.500000	-0.033458
309.000000	-0.031861
307.500000	-0.018041
306.000000	-0.008042
304.500000	-0.003414
303.000000	-0.009586
301.500000	-0.011120
300.000000	-0.011891
