PE UV       SUBTECH     SPECTRUM    ASCII       PEDS        4.00        
   -1
Sample90.Sample.Raw.asc
20/12/16
16:58:07.00
20/12/16
16:58:07.00
Administrator

300.000000
1
Lambda 850
850L1710193
PerkinElmer UV WinLab 6.4.0.973 / 2.02.06 Lambda 800 UV/VIS, Jan 28 2016 16:58:34

0
0
2
0
0
UV/VIS
1
1
1
RBeamAtt,SBeamAtt,60mm sphere
0
0
0
0
Fix
 
0
0.2
0
0
0
 
 
 
0
 
0
319.2
0
Front
100
 
S:100 R:100
 
0
0
0
 
0
 
 
 
0
 
 
0
0
0
0
0
 
 
 
 
0
0


0
0
#HDR
-1
-1
#GR
nm
%T
1.0
0.0
750.000000
-1.500000
301
8
74.540322
-0.033035
#DATA
750.000000	74.116926
748.500000	74.540322
747.000000	74.425284
745.500000	74.380245
744.000000	74.399105
742.500000	74.308237
741.000000	74.500303
739.500000	74.275591
738.000000	74.356238
736.500000	74.275676
735.000000	74.451389
733.500000	74.346521
732.000000	74.425974
730.500000	74.204441
729.000000	74.309524
727.500000	74.311291
726.000000	74.258492
724.500000	74.300206
723.000000	74.359505
721.500000	74.385776
720.000000	74.259540
718.500000	74.138499
717.000000	74.262351
715.500000	74.175586
714.000000	74.207552
712.500000	74.264896
711.000000	74.175530
709.500000	74.090345
708.000000	74.211030
706.500000	74.130148
705.000000	74.210065
703.500000	74.109471
702.000000	74.052537
700.500000	74.194710
699.000000	74.037784
697.500000	74.077430
696.000000	74.162258
694.500000	74.007225
693.000000	74.032077
691.500000	74.004602
690.000000	73.814905
688.500000	74.160596
687.000000	74.071692
685.500000	73.983083
684.000000	73.955613
682.500000	73.910667
681.000000	73.992791
679.500000	74.015040
678.000000	73.979864
676.500000	73.904428
675.000000	73.935967
673.500000	73.880164
672.000000	73.849752
670.500000	73.874473
669.000000	73.902469
667.500000	73.773511
666.000000	73.770266
664.500000	73.800957
663.000000	73.821643
661.500000	73.751297
660.000000	73.782334
658.500000	73.717269
657.000000	73.759249
655.500000	73.783068
654.000000	73.767197
652.500000	73.725520
651.000000	73.704140
649.500000	73.680882
648.000000	73.603000
646.500000	73.608748
645.000000	73.621185
643.500000	73.621135
642.000000	73.595665
640.500000	73.583852
639.000000	73.580229
637.500000	73.553652
636.000000	73.560328
634.500000	73.576493
633.000000	73.528048
631.500000	73.503525
630.000000	73.491595
628.500000	73.492495
627.000000	73.469953
625.500000	73.453035
624.000000	73.386748
622.500000	73.438798
621.000000	73.449461
619.500000	73.395795
618.000000	73.334889
616.500000	73.297384
615.000000	73.274471
613.500000	73.256753
612.000000	73.240662
610.500000	73.226798
609.000000	73.235105
607.500000	73.207203
606.000000	73.180790
604.500000	73.167915
603.000000	73.130021
601.500000	73.053899
600.000000	73.058841
598.500000	73.052839
597.000000	73.039661
595.500000	73.044298
594.000000	73.009631
592.500000	72.962383
591.000000	72.939384
589.500000	72.963021
588.000000	72.919668
586.500000	72.865620
585.000000	72.830182
583.500000	72.806005
582.000000	72.794425
580.500000	72.777734
579.000000	72.786061
577.500000	72.742607
576.000000	72.693215
574.500000	72.678506
573.000000	72.656697
571.500000	72.605513
570.000000	72.554116
568.500000	72.513656
567.000000	72.464879
565.500000	72.406468
564.000000	72.388166
562.500000	72.377270
561.000000	72.483018
559.500000	72.607305
558.000000	72.559769
556.500000	72.548136
555.000000	72.560366
553.500000	72.505137
552.000000	72.477191
550.500000	72.479854
549.000000	72.448973
547.500000	72.425365
546.000000	72.404805
544.500000	72.369938
543.000000	72.355682
541.500000	72.344949
540.000000	72.324035
538.500000	72.308637
537.000000	72.266320
535.500000	72.242759
534.000000	72.246990
532.500000	72.231770
531.000000	72.198022
529.500000	72.187083
528.000000	72.187281
526.500000	72.155863
525.000000	72.085559
523.500000	72.009254
522.000000	71.957426
520.500000	71.874520
519.000000	71.740500
517.500000	71.636518
516.000000	71.500348
514.500000	71.291585
513.000000	71.065849
511.500000	70.819042
510.000000	70.556346
508.500000	70.330537
507.000000	70.112028
505.500000	69.942301
504.000000	69.821713
502.500000	69.757693
501.000000	69.760690
499.500000	69.755845
498.000000	69.861048
496.500000	69.952631
495.000000	70.029743
493.500000	70.194142
492.000000	70.334006
490.500000	70.499564
489.000000	70.594867
487.500000	70.669244
486.000000	70.837681
484.500000	71.017768
483.000000	71.356558
481.500000	71.680500
480.000000	71.669061
478.500000	71.343214
477.000000	71.083122
475.500000	70.925084
474.000000	70.779992
472.500000	70.617381
471.000000	70.441847
469.500000	70.243690
468.000000	70.013739
466.500000	69.721636
465.000000	69.445291
463.500000	69.179450
462.000000	68.985088
460.500000	68.831885
459.000000	68.712547
457.500000	68.635572
456.000000	68.608446
454.500000	68.626963
453.000000	68.621332
451.500000	68.602922
450.000000	68.615549
448.500000	68.612265
447.000000	68.628359
445.500000	68.669927
444.000000	68.981248
442.500000	69.124886
441.000000	69.042502
439.500000	68.948674
438.000000	68.855388
436.500000	68.822325
435.000000	68.738109
433.500000	68.597381
432.000000	68.560490
430.500000	68.488049
429.000000	68.459515
427.500000	68.394535
426.000000	68.280602
424.500000	68.229506
423.000000	68.209301
421.500000	68.088714
420.000000	68.011112
418.500000	67.938216
417.000000	67.896720
415.500000	67.753484
414.000000	67.659875
412.500000	67.556483
411.000000	67.516080
409.500000	67.403055
408.000000	67.206835
406.500000	67.152275
405.000000	67.048214
403.500000	66.867515
402.000000	66.685399
400.500000	66.640882
399.000000	66.561002
397.500000	66.425312
396.000000	66.225971
394.500000	66.075333
393.000000	65.869536
391.500000	65.673606
390.000000	65.561763
388.500000	65.339987
387.000000	65.025191
385.500000	64.892557
384.000000	64.605017
382.500000	64.240844
381.000000	63.935229
379.500000	63.446670
378.000000	63.267718
376.500000	63.552832
375.000000	63.474167
373.500000	62.370411
372.000000	61.251901
370.500000	60.143495
369.000000	58.698419
367.500000	56.852560
366.000000	54.658831
364.500000	52.286251
363.000000	49.492705
361.500000	46.340671
360.000000	42.489234
358.500000	38.189538
357.000000	33.379666
355.500000	28.303710
354.000000	23.075476
352.500000	17.920156
351.000000	13.236296
349.500000	9.214137
348.000000	6.029165
346.500000	3.705370
345.000000	2.132401
343.500000	1.142760
342.000000	0.578849
340.500000	0.261990
339.000000	0.121688
337.500000	0.066469
336.000000	0.054335
334.500000	0.062912
333.000000	0.056182
331.500000	0.065045
330.000000	0.056612
328.500000	0.061076
327.000000	0.061903
325.500000	0.063125
324.000000	0.065385
322.500000	0.076351
321.000000	0.078681
319.500000	0.063254
318.000000	-0.000940
316.500000	-0.033035
315.000000	-0.032105
313.500000	-0.030824
312.000000	-0.027398
310.500000	-0.023656
309.000000	-0.023943
307.500000	-0.024937
306.000000	-0.010975
304.500000	-0.005500
303.000000	-0.004935
301.500000	-0.013305
300.000000	-0.009988
