PE UV       SUBTECH     SPECTRUM    ASCII       PEDS        4.00        
   -1
Sample61.Sample.Raw.asc
20/12/15
16:40:16.00
20/12/15
16:40:16.00
Administrator

300.000000
1
Lambda 850
850L1710193
PerkinElmer UV WinLab 6.4.0.973 / 2.02.06 Lambda 800 UV/VIS, Jan 28 2016 16:58:34

0
0
2
0
0
UV/VIS
1
1
1
RBeamAtt,SBeamAtt,60mm sphere
0
0
0
0
Fix
 
0
0.2
0
0
0
 
 
 
0
 
0
319.2
0
Front
100
 
S:100 R:100
 
0
0
0
 
0
 
 
 
0
 
 
0
0
0
0
0
 
 
 
 
0
0


0
0
#HDR
-1
-1
#GR
nm
%T
1.0
0.0
750.000000
-1.500000
301
8
75.262090
-0.032875
#DATA
750.000000	74.619720
748.500000	75.174979
747.000000	75.093647
745.500000	75.079720
744.000000	75.262090
742.500000	75.161003
741.000000	75.027462
739.500000	74.925379
738.000000	75.078994
736.500000	74.943935
735.000000	75.038007
733.500000	74.971515
732.000000	75.033979
730.500000	75.059471
729.000000	75.028044
727.500000	74.966241
726.000000	74.963999
724.500000	75.010948
723.000000	74.879644
721.500000	74.849381
720.000000	74.864036
718.500000	74.928637
717.000000	74.870258
715.500000	74.946236
714.000000	74.835676
712.500000	74.741668
711.000000	74.933615
709.500000	74.727522
708.000000	74.715110
706.500000	74.785060
705.000000	74.722042
703.500000	74.807572
702.000000	74.687331
700.500000	74.636010
699.000000	74.766447
697.500000	74.612135
696.000000	74.684191
694.500000	74.643415
693.000000	74.520365
691.500000	74.628157
690.000000	74.409570
688.500000	74.682162
687.000000	74.654245
685.500000	74.639991
684.000000	74.618003
682.500000	74.584919
681.000000	74.617849
679.500000	74.566018
678.000000	74.562502
676.500000	74.520225
675.000000	74.574987
673.500000	74.510853
672.000000	74.448849
670.500000	74.466306
669.000000	74.461948
667.500000	74.524627
666.000000	74.416973
664.500000	74.409909
663.000000	74.507874
661.500000	74.404182
660.000000	74.341726
658.500000	74.416420
657.000000	74.375945
655.500000	74.311798
654.000000	74.344352
652.500000	74.344146
651.000000	74.279453
649.500000	74.313349
648.000000	74.250135
646.500000	74.261078
645.000000	74.223832
643.500000	74.228006
642.000000	74.251806
640.500000	74.167927
639.000000	74.173885
637.500000	74.164690
636.000000	74.173797
634.500000	74.143834
633.000000	74.107407
631.500000	74.156859
630.000000	74.101604
628.500000	74.139658
627.000000	74.118584
625.500000	74.062878
624.000000	74.077082
622.500000	74.046867
621.000000	74.053370
619.500000	74.033514
618.000000	73.966145
616.500000	73.927389
615.000000	73.924092
613.500000	73.909433
612.000000	73.903289
610.500000	73.919864
609.000000	73.893649
607.500000	73.844438
606.000000	73.814759
604.500000	73.769191
603.000000	73.758106
601.500000	73.784945
600.000000	73.748125
598.500000	73.730490
597.000000	73.763479
595.500000	73.722704
594.000000	73.677804
592.500000	73.640484
591.000000	73.598689
589.500000	73.646829
588.000000	73.632028
586.500000	73.588346
585.000000	73.563165
583.500000	73.541798
582.000000	73.546638
580.500000	73.561439
579.000000	73.505788
577.500000	73.498936
576.000000	73.492471
574.500000	73.477025
573.000000	73.469312
571.500000	73.467002
570.000000	73.425652
568.500000	73.371263
567.000000	73.345189
565.500000	73.297977
564.000000	73.220750
562.500000	73.234423
561.000000	73.367424
559.500000	73.487897
558.000000	73.488675
556.500000	73.492089
555.000000	73.487807
553.500000	73.473128
552.000000	73.466488
550.500000	73.450402
549.000000	73.402364
547.500000	73.397952
546.000000	73.444287
544.500000	73.440769
543.000000	73.413123
541.500000	73.405209
540.000000	73.417709
538.500000	73.434826
537.000000	73.427290
535.500000	73.431446
534.000000	73.438129
532.500000	73.449784
531.000000	73.443393
529.500000	73.436045
528.000000	73.432407
526.500000	73.429431
525.000000	73.432998
523.500000	73.414868
522.000000	73.366924
520.500000	73.277723
519.000000	73.158714
517.500000	73.059856
516.000000	72.920436
514.500000	72.725012
513.000000	72.504563
511.500000	72.262572
510.000000	71.969158
508.500000	71.703945
507.000000	71.468566
505.500000	71.275038
504.000000	71.112876
502.500000	70.998549
501.000000	70.950905
499.500000	70.987626
498.000000	70.995340
496.500000	71.007998
495.000000	71.102111
493.500000	71.185164
492.000000	71.346144
490.500000	71.438556
489.000000	71.557241
487.500000	71.707055
486.000000	71.833372
484.500000	72.045927
483.000000	72.432811
481.500000	72.872276
480.000000	73.017690
478.500000	72.823878
477.000000	72.606114
475.500000	72.461229
474.000000	72.348994
472.500000	72.252192
471.000000	72.105862
469.500000	71.943516
468.000000	71.662007
466.500000	71.430715
465.000000	71.167499
463.500000	70.877386
462.000000	70.674155
460.500000	70.522507
459.000000	70.390405
457.500000	70.297710
456.000000	70.217002
454.500000	70.243376
453.000000	70.187409
451.500000	70.153206
450.000000	70.161639
448.500000	70.150685
447.000000	70.104600
445.500000	70.065579
444.000000	70.339594
442.500000	70.531567
441.000000	70.436913
439.500000	70.345680
438.000000	70.303243
436.500000	70.255609
435.000000	70.127074
433.500000	70.060972
432.000000	70.067953
430.500000	69.950231
429.000000	69.943746
427.500000	69.872228
426.000000	69.791980
424.500000	69.721807
423.000000	69.627772
421.500000	69.510671
420.000000	69.422633
418.500000	69.373055
417.000000	69.315539
415.500000	69.203167
414.000000	69.139513
412.500000	68.972224
411.000000	68.997180
409.500000	68.800888
408.000000	68.751266
406.500000	68.736360
405.000000	68.629771
403.500000	68.438206
402.000000	68.389215
400.500000	68.234673
399.000000	68.124017
397.500000	68.005122
396.000000	67.877787
394.500000	67.792951
393.000000	67.691664
391.500000	67.522842
390.000000	67.367638
388.500000	67.197188
387.000000	67.125669
385.500000	66.894290
384.000000	66.578335
382.500000	66.369649
381.000000	66.048182
379.500000	65.787323
378.000000	65.501358
376.500000	66.196851
375.000000	66.408068
373.500000	65.606330
372.000000	64.527043
370.500000	63.562613
369.000000	62.524654
367.500000	61.309541
366.000000	59.920149
364.500000	58.165404
363.000000	56.327208
361.500000	53.855638
360.000000	51.054172
358.500000	47.905620
357.000000	44.194586
355.500000	39.896856
354.000000	35.178751
352.500000	30.214958
351.000000	25.017810
349.500000	19.873147
348.000000	14.993056
346.500000	10.611934
345.000000	6.953173
343.500000	4.172950
342.000000	2.229201
340.500000	1.011308
339.000000	0.398536
337.500000	0.131744
336.000000	0.037692
334.500000	0.019953
333.000000	0.022961
331.500000	0.029053
330.000000	0.028362
328.500000	0.025819
327.000000	0.032036
325.500000	0.030412
324.000000	0.028832
322.500000	0.021675
321.000000	0.027770
319.500000	0.020996
318.000000	-0.000941
316.500000	-0.030990
315.000000	-0.032875
313.500000	-0.029336
312.000000	-0.032467
310.500000	-0.023729
309.000000	-0.024335
307.500000	-0.023636
306.000000	-0.014973
304.500000	-0.007684
303.000000	-0.008559
301.500000	-0.015123
300.000000	-0.016928
