PE UV       SUBTECH     SPECTRUM    ASCII       PEDS        4.00        
   -1
Sample127.Sample.Raw.asc
20/12/17
16:43:00.00
20/12/17
16:43:00.00
Administrator

300.000000
1
Lambda 850
850L1710193
PerkinElmer UV WinLab 6.4.0.973 / 2.02.06 Lambda 800 UV/VIS, Jan 28 2016 16:58:34

0
0
2
0
0
UV/VIS
1
1
1
RBeamAtt,SBeamAtt,60mm sphere
0
0
0
0
Fix
 
0
0.2
0
0
0
 
 
 
0
 
0
319.2
0
Front
100
 
S:100 R:100
 
0
0
0
 
0
 
 
 
0
 
 
0
0
0
0
0
 
 
 
 
0
0


0
0
#HDR
-1
-1
#GR
nm
%T
1.0
0.0
750.000000
-1.500000
301
8
75.228771
-0.035775
#DATA
750.000000	74.872004
748.500000	75.228771
747.000000	75.079098
745.500000	75.068240
744.000000	74.980950
742.500000	74.936241
741.000000	75.095601
739.500000	75.069434
738.000000	74.911231
736.500000	74.949704
735.000000	74.937891
733.500000	75.027480
732.000000	75.049716
730.500000	74.969392
729.000000	74.943714
727.500000	74.908226
726.000000	74.967360
724.500000	74.948929
723.000000	75.009076
721.500000	74.888158
720.000000	74.774342
718.500000	74.802861
717.000000	74.939009
715.500000	74.843852
714.000000	74.773532
712.500000	74.809386
711.000000	74.782299
709.500000	74.721778
708.000000	74.754570
706.500000	74.889774
705.000000	74.813622
703.500000	74.868994
702.000000	74.832586
700.500000	74.754567
699.000000	74.716887
697.500000	74.777691
696.000000	74.724330
694.500000	74.656210
693.000000	74.609760
691.500000	74.580116
690.000000	74.459196
688.500000	74.680412
687.000000	74.618256
685.500000	74.605931
684.000000	74.633154
682.500000	74.604906
681.000000	74.512092
679.500000	74.463377
678.000000	74.601951
676.500000	74.566178
675.000000	74.559559
673.500000	74.473391
672.000000	74.483335
670.500000	74.496016
669.000000	74.438606
667.500000	74.515531
666.000000	74.549810
664.500000	74.413945
663.000000	74.451853
661.500000	74.454326
660.000000	74.385593
658.500000	74.404243
657.000000	74.463344
655.500000	74.351000
654.000000	74.335088
652.500000	74.404126
651.000000	74.424003
649.500000	74.358074
648.000000	74.284418
646.500000	74.286835
645.000000	74.293545
643.500000	74.234859
642.000000	74.254322
640.500000	74.263681
639.000000	74.212324
637.500000	74.182088
636.000000	74.168300
634.500000	74.135933
633.000000	74.135939
631.500000	74.143635
630.000000	74.129063
628.500000	74.099862
627.000000	74.146746
625.500000	74.086311
624.000000	74.062933
622.500000	74.043290
621.000000	74.028780
619.500000	74.039216
618.000000	73.935641
616.500000	73.931694
615.000000	73.956421
613.500000	73.934931
612.000000	73.900435
610.500000	73.890186
609.000000	73.902337
607.500000	73.892353
606.000000	73.856445
604.500000	73.845514
603.000000	73.817443
601.500000	73.794349
600.000000	73.834513
598.500000	73.828767
597.000000	73.782688
595.500000	73.699756
594.000000	73.690369
592.500000	73.660163
591.000000	73.686143
589.500000	73.678714
588.000000	73.633567
586.500000	73.596613
585.000000	73.566600
583.500000	73.576997
582.000000	73.595239
580.500000	73.565722
579.000000	73.519410
577.500000	73.483545
576.000000	73.481597
574.500000	73.488158
573.000000	73.444511
571.500000	73.393892
570.000000	73.379726
568.500000	73.396825
567.000000	73.369202
565.500000	73.297513
564.000000	73.245523
562.500000	73.269450
561.000000	73.426111
559.500000	73.541440
558.000000	73.526918
556.500000	73.500347
555.000000	73.497118
553.500000	73.493932
552.000000	73.488262
550.500000	73.468673
549.000000	73.437620
547.500000	73.447484
546.000000	73.463189
544.500000	73.469143
543.000000	73.452528
541.500000	73.446044
540.000000	73.438337
538.500000	73.439258
537.000000	73.465507
535.500000	73.459372
534.000000	73.451065
532.500000	73.442344
531.000000	73.441644
529.500000	73.450889
528.000000	73.444058
526.500000	73.455620
525.000000	73.436886
523.500000	73.392771
522.000000	73.350764
520.500000	73.292374
519.000000	73.187580
517.500000	73.069343
516.000000	72.909955
514.500000	72.718704
513.000000	72.517509
511.500000	72.259460
510.000000	71.983070
508.500000	71.744788
507.000000	71.502092
505.500000	71.295744
504.000000	71.132376
502.500000	71.037113
501.000000	70.986270
499.500000	70.958839
498.000000	70.988001
496.500000	71.063470
495.000000	71.116905
493.500000	71.213259
492.000000	71.336300
490.500000	71.446610
489.000000	71.584287
487.500000	71.715671
486.000000	71.851076
484.500000	72.092549
483.000000	72.453038
481.500000	72.842806
480.000000	73.023607
478.500000	72.816469
477.000000	72.615116
475.500000	72.495172
474.000000	72.381479
472.500000	72.294169
471.000000	72.138606
469.500000	71.952990
468.000000	71.727388
466.500000	71.445325
465.000000	71.163004
463.500000	70.899507
462.000000	70.685623
460.500000	70.575685
459.000000	70.436553
457.500000	70.296511
456.000000	70.286484
454.500000	70.232904
453.000000	70.263888
451.500000	70.239891
450.000000	70.190256
448.500000	70.220996
447.000000	70.146971
445.500000	70.194079
444.000000	70.410338
442.500000	70.610783
441.000000	70.407554
439.500000	70.352553
438.000000	70.278596
436.500000	70.226481
435.000000	70.172924
433.500000	70.090662
432.000000	70.041164
430.500000	70.004322
429.000000	69.886689
427.500000	69.795658
426.000000	69.772978
424.500000	69.757743
423.000000	69.594447
421.500000	69.561190
420.000000	69.480660
418.500000	69.374681
417.000000	69.382551
415.500000	69.212444
414.000000	69.120830
412.500000	69.030609
411.000000	68.976501
409.500000	68.801273
408.000000	68.798641
406.500000	68.724877
405.000000	68.546912
403.500000	68.454025
402.000000	68.332418
400.500000	68.265933
399.000000	68.252031
397.500000	68.116516
396.000000	67.989790
394.500000	67.738701
393.000000	67.657668
391.500000	67.597899
390.000000	67.405284
388.500000	67.266146
387.000000	66.978314
385.500000	66.761336
384.000000	66.619581
382.500000	66.397551
381.000000	66.165569
379.500000	65.937516
378.000000	65.810056
376.500000	66.358652
375.000000	66.476889
373.500000	65.581391
372.000000	64.713429
370.500000	63.639854
369.000000	62.688680
367.500000	61.577547
366.000000	60.020702
364.500000	58.401123
363.000000	56.612230
361.500000	54.266605
360.000000	51.482885
358.500000	48.421174
357.000000	44.804546
355.500000	40.616922
354.000000	35.945208
352.500000	31.010149
351.000000	25.733278
349.500000	20.588160
348.000000	15.686659
346.500000	11.186665
345.000000	7.439419
343.500000	4.472307
342.000000	2.444869
340.500000	1.154578
339.000000	0.480865
337.500000	0.179757
336.000000	0.085500
334.500000	0.061464
333.000000	0.067158
331.500000	0.065682
330.000000	0.056845
328.500000	0.061567
327.000000	0.057397
325.500000	0.049785
324.000000	0.052571
322.500000	0.052458
321.000000	0.056225
319.500000	0.059168
318.000000	0.001316
316.500000	-0.028050
315.000000	-0.035187
313.500000	-0.035775
312.000000	-0.035538
310.500000	-0.031604
309.000000	-0.032159
307.500000	-0.018914
306.000000	-0.018564
304.500000	-0.007582
303.000000	-0.013381
301.500000	-0.013486
300.000000	-0.016932
