PE UV       SUBTECH     SPECTRUM    ASCII       PEDS        4.00        
   -1
Sample63.Sample.Raw.asc
20/12/15
16:45:49.00
20/12/15
16:45:49.00
Administrator

300.000000
1
Lambda 850
850L1710193
PerkinElmer UV WinLab 6.4.0.973 / 2.02.06 Lambda 800 UV/VIS, Jan 28 2016 16:58:34

0
0
2
0
0
UV/VIS
1
1
1
RBeamAtt,SBeamAtt,60mm sphere
0
0
0
0
Fix
 
0
0.2
0
0
0
 
 
 
0
 
0
319.2
0
Front
100
 
S:100 R:100
 
0
0
0
 
0
 
 
 
0
 
 
0
0
0
0
0
 
 
 
 
0
0


0
0
#HDR
-1
-1
#GR
nm
%T
1.0
0.0
750.000000
-1.500000
301
8
75.355761
-0.035129
#DATA
750.000000	74.727202
748.500000	75.355761
747.000000	75.202539
745.500000	75.271611
744.000000	75.313594
742.500000	75.246646
741.000000	75.232215
739.500000	75.181223
738.000000	75.264094
736.500000	75.175234
735.000000	75.206305
733.500000	75.159145
732.000000	75.292690
730.500000	75.138981
729.000000	75.225809
727.500000	74.995889
726.000000	75.108164
724.500000	75.228440
723.000000	75.050990
721.500000	75.042147
720.000000	75.014796
718.500000	75.064779
717.000000	75.136770
715.500000	75.022636
714.000000	74.957633
712.500000	74.890865
711.000000	75.117978
709.500000	74.936585
708.000000	74.866585
706.500000	74.865324
705.000000	74.898431
703.500000	74.895152
702.000000	74.903496
700.500000	74.883467
699.000000	74.913400
697.500000	74.728173
696.000000	74.788610
694.500000	74.720375
693.000000	74.717230
691.500000	74.732461
690.000000	74.586556
688.500000	74.854632
687.000000	74.777282
685.500000	74.774334
684.000000	74.732870
682.500000	74.666765
681.000000	74.769685
679.500000	74.819475
678.000000	74.732487
676.500000	74.609695
675.000000	74.644504
673.500000	74.626626
672.000000	74.603574
670.500000	74.657371
669.000000	74.633744
667.500000	74.620777
666.000000	74.552775
664.500000	74.561576
663.000000	74.628071
661.500000	74.593129
660.000000	74.518995
658.500000	74.463711
657.000000	74.489361
655.500000	74.533600
654.000000	74.533652
652.500000	74.435917
651.000000	74.434734
649.500000	74.477817
648.000000	74.439616
646.500000	74.454296
645.000000	74.399287
643.500000	74.411863
642.000000	74.381687
640.500000	74.312807
639.000000	74.288454
637.500000	74.252086
636.000000	74.233709
634.500000	74.281387
633.000000	74.289857
631.500000	74.239547
630.000000	74.177935
628.500000	74.220317
627.000000	74.237790
625.500000	74.209123
624.000000	74.202311
622.500000	74.131922
621.000000	74.122763
619.500000	74.146234
618.000000	74.116515
616.500000	74.064870
615.000000	74.068953
613.500000	74.070076
612.000000	74.006598
610.500000	73.994834
609.000000	74.007804
607.500000	73.974125
606.000000	73.939488
604.500000	73.889607
603.000000	73.881772
601.500000	73.915192
600.000000	73.924920
598.500000	73.909786
597.000000	73.918397
595.500000	73.890221
594.000000	73.888252
592.500000	73.827904
591.000000	73.775064
589.500000	73.804671
588.000000	73.763294
586.500000	73.690976
585.000000	73.715851
583.500000	73.704455
582.000000	73.694343
580.500000	73.676876
579.000000	73.643921
577.500000	73.652348
576.000000	73.640259
574.500000	73.608977
573.000000	73.590570
571.500000	73.584300
570.000000	73.543486
568.500000	73.476867
567.000000	73.436005
565.500000	73.408170
564.000000	73.371394
562.500000	73.375633
561.000000	73.509532
559.500000	73.633982
558.000000	73.626843
556.500000	73.602279
555.000000	73.596671
553.500000	73.599346
552.000000	73.596610
550.500000	73.604458
549.000000	73.554968
547.500000	73.534536
546.000000	73.566239
544.500000	73.576268
543.000000	73.551958
541.500000	73.545174
540.000000	73.543068
538.500000	73.550880
537.000000	73.565040
535.500000	73.556549
534.000000	73.552922
532.500000	73.563770
531.000000	73.571495
529.500000	73.583476
528.000000	73.567695
526.500000	73.537894
525.000000	73.542564
523.500000	73.511481
522.000000	73.468339
520.500000	73.413693
519.000000	73.291620
517.500000	73.172690
516.000000	73.014689
514.500000	72.827606
513.000000	72.601442
511.500000	72.369018
510.000000	72.097293
508.500000	71.843783
507.000000	71.603925
505.500000	71.400176
504.000000	71.234449
502.500000	71.112054
501.000000	71.067764
499.500000	71.118412
498.000000	71.126139
496.500000	71.132775
495.000000	71.212820
493.500000	71.294379
492.000000	71.436418
490.500000	71.534184
489.000000	71.654021
487.500000	71.838467
486.000000	71.971998
484.500000	72.212247
483.000000	72.536942
481.500000	72.951214
480.000000	73.091838
478.500000	72.952136
477.000000	72.679506
475.500000	72.495698
474.000000	72.424595
472.500000	72.348748
471.000000	72.208746
469.500000	72.014517
468.000000	71.732530
466.500000	71.514147
465.000000	71.241625
463.500000	70.978576
462.000000	70.764312
460.500000	70.635643
459.000000	70.482642
457.500000	70.397182
456.000000	70.337799
454.500000	70.313747
453.000000	70.233878
451.500000	70.217035
450.000000	70.255719
448.500000	70.259713
447.000000	70.157715
445.500000	70.209555
444.000000	70.451148
442.500000	70.601625
441.000000	70.558408
439.500000	70.448279
438.000000	70.361097
436.500000	70.335372
435.000000	70.253987
433.500000	70.171057
432.000000	70.166110
430.500000	70.070357
429.000000	70.020184
427.500000	69.902154
426.000000	69.809438
424.500000	69.803112
423.000000	69.765525
421.500000	69.590253
420.000000	69.507897
418.500000	69.475145
417.000000	69.396326
415.500000	69.285453
414.000000	69.234151
412.500000	69.033675
411.000000	69.005461
409.500000	68.928347
408.000000	68.865307
406.500000	68.732227
405.000000	68.653865
403.500000	68.585608
402.000000	68.404692
400.500000	68.241128
399.000000	68.100743
397.500000	68.084692
396.000000	67.842215
394.500000	67.766540
393.000000	67.652766
391.500000	67.561564
390.000000	67.391929
388.500000	67.191837
387.000000	67.036239
385.500000	66.803092
384.000000	66.617932
382.500000	66.304285
381.000000	66.035803
379.500000	65.850073
378.000000	65.674506
376.500000	66.214692
375.000000	66.297579
373.500000	65.512299
372.000000	64.496161
370.500000	63.562977
369.000000	62.409375
367.500000	61.208697
366.000000	59.819947
364.500000	58.121979
363.000000	56.270978
361.500000	53.805406
360.000000	51.062129
358.500000	47.875581
357.000000	44.115865
355.500000	39.951181
354.000000	35.156205
352.500000	30.202387
351.000000	25.000804
349.500000	19.876271
348.000000	15.040363
346.500000	10.680461
345.000000	6.985806
343.500000	4.209936
342.000000	2.234102
340.500000	1.015188
339.000000	0.391404
337.500000	0.130446
336.000000	0.039915
334.500000	0.030162
333.000000	0.032867
331.500000	0.029703
330.000000	0.034108
328.500000	0.025354
327.000000	0.034451
325.500000	0.026971
324.000000	0.029111
322.500000	0.035907
321.000000	0.040630
319.500000	0.026502
318.000000	-0.003574
316.500000	-0.030051
315.000000	-0.035129
313.500000	-0.027644
312.000000	-0.028609
310.500000	-0.029096
309.000000	-0.032446
307.500000	-0.022123
306.000000	-0.013362
304.500000	-0.012427
303.000000	-0.017784
301.500000	-0.019403
300.000000	-0.016548
