PE UV       SUBTECH     SPECTRUM    ASCII       PEDS        4.00        
   -1
Sample66.Sample.Raw.asc
20/12/15
16:56:06.00
20/12/15
16:56:06.00
Administrator

300.000000
1
Lambda 850
850L1710193
PerkinElmer UV WinLab 6.4.0.973 / 2.02.06 Lambda 800 UV/VIS, Jan 28 2016 16:58:34

0
0
2
0
0
UV/VIS
1
1
1
RBeamAtt,SBeamAtt,60mm sphere
0
0
0
0
Fix
 
0
0.2
0
0
0
 
 
 
0
 
0
319.2
0
Front
100
 
S:100 R:100
 
0
0
0
 
0
 
 
 
0
 
 
0
0
0
0
0
 
 
 
 
0
0


0
0
#HDR
-1
-1
#GR
nm
%T
1.0
0.0
750.000000
-1.500000
301
8
73.843417
-0.033032
#DATA
750.000000	73.254246
748.500000	73.630795
747.000000	73.678777
745.500000	73.723156
744.000000	73.843417
742.500000	73.754612
741.000000	73.682876
739.500000	73.660450
738.000000	73.705833
736.500000	73.639957
735.000000	73.655353
733.500000	73.649364
732.000000	73.584015
730.500000	73.689560
729.000000	73.548697
727.500000	73.502573
726.000000	73.484249
724.500000	73.541634
723.000000	73.478615
721.500000	73.522730
720.000000	73.490307
718.500000	73.449285
717.000000	73.531197
715.500000	73.468301
714.000000	73.462346
712.500000	73.243523
711.000000	73.551217
709.500000	73.296957
708.000000	73.387674
706.500000	73.400771
705.000000	73.375842
703.500000	73.355318
702.000000	73.320298
700.500000	73.295338
699.000000	73.359458
697.500000	73.236323
696.000000	73.297596
694.500000	73.212585
693.000000	73.162466
691.500000	73.275554
690.000000	73.068213
688.500000	73.307146
687.000000	73.307384
685.500000	73.265449
684.000000	73.242378
682.500000	73.177826
681.000000	73.210925
679.500000	73.152054
678.000000	73.087352
676.500000	73.130655
675.000000	73.172433
673.500000	73.103470
672.000000	73.102162
670.500000	73.104159
669.000000	73.033677
667.500000	73.086890
666.000000	73.005695
664.500000	73.036285
663.000000	73.088596
661.500000	73.038922
660.000000	72.951485
658.500000	72.963136
657.000000	72.950977
655.500000	72.921428
654.000000	72.930518
652.500000	72.923618
651.000000	72.923438
649.500000	72.953699
648.000000	72.883387
646.500000	72.916692
645.000000	72.811061
643.500000	72.831679
642.000000	72.840730
640.500000	72.791198
639.000000	72.770423
637.500000	72.766340
636.000000	72.755568
634.500000	72.736283
633.000000	72.707168
631.500000	72.682485
630.000000	72.630064
628.500000	72.710054
627.000000	72.714564
625.500000	72.666835
624.000000	72.655533
622.500000	72.590887
621.000000	72.587963
619.500000	72.563707
618.000000	72.564012
616.500000	72.541446
615.000000	72.538054
613.500000	72.507682
612.000000	72.448402
610.500000	72.440424
609.000000	72.433060
607.500000	72.364698
606.000000	72.367548
604.500000	72.332268
603.000000	72.311793
601.500000	72.342575
600.000000	72.310175
598.500000	72.267988
597.000000	72.278837
595.500000	72.248308
594.000000	72.241635
592.500000	72.202526
591.000000	72.186447
589.500000	72.192748
588.000000	72.159152
586.500000	72.095099
585.000000	72.090614
583.500000	72.054691
582.000000	72.038238
580.500000	72.012826
579.000000	71.979889
577.500000	71.977861
576.000000	71.966891
574.500000	71.922238
573.000000	71.917224
571.500000	71.913657
570.000000	71.854379
568.500000	71.787449
567.000000	71.736652
565.500000	71.705384
564.000000	71.637865
562.500000	71.632891
561.000000	71.770086
559.500000	71.848032
558.000000	71.826615
556.500000	71.829913
555.000000	71.798307
553.500000	71.772778
552.000000	71.739816
550.500000	71.715666
549.000000	71.685509
547.500000	71.678159
546.000000	71.696585
544.500000	71.683327
543.000000	71.640962
541.500000	71.594568
540.000000	71.579006
538.500000	71.567076
537.000000	71.540559
535.500000	71.504975
534.000000	71.493424
532.500000	71.483636
531.000000	71.450456
529.500000	71.430954
528.000000	71.406226
526.500000	71.371026
525.000000	71.335789
523.500000	71.283522
522.000000	71.222083
520.500000	71.148135
519.000000	71.027023
517.500000	70.898093
516.000000	70.731542
514.500000	70.534033
513.000000	70.307072
511.500000	70.061729
510.000000	69.826283
508.500000	69.578956
507.000000	69.379163
505.500000	69.214635
504.000000	69.062049
502.500000	68.984099
501.000000	69.003937
499.500000	69.095360
498.000000	69.194596
496.500000	69.242086
495.000000	69.356109
493.500000	69.501034
492.000000	69.676740
490.500000	69.798858
489.000000	69.909392
487.500000	70.094184
486.000000	70.188827
484.500000	70.340335
483.000000	70.621138
481.500000	70.951461
480.000000	70.969193
478.500000	70.725714
477.000000	70.434575
475.500000	70.242898
474.000000	70.109663
472.500000	69.991337
471.000000	69.810611
469.500000	69.585800
468.000000	69.313137
466.500000	69.105951
465.000000	68.827021
463.500000	68.553002
462.000000	68.346462
460.500000	68.234076
459.000000	68.135303
457.500000	68.072142
456.000000	68.027018
454.500000	68.079862
453.000000	68.048081
451.500000	68.034934
450.000000	68.119136
448.500000	68.165478
447.000000	68.070051
445.500000	68.129797
444.000000	68.395611
442.500000	68.567766
441.000000	68.510788
439.500000	68.360195
438.000000	68.251313
436.500000	68.225577
435.000000	68.098048
433.500000	68.003162
432.000000	67.956215
430.500000	67.875483
429.000000	67.826662
427.500000	67.751597
426.000000	67.647349
424.500000	67.598170
423.000000	67.499236
421.500000	67.396254
420.000000	67.299154
418.500000	67.153412
417.000000	67.128043
415.500000	66.882957
414.000000	66.861837
412.500000	66.677164
411.000000	66.656195
409.500000	66.508155
408.000000	66.403346
406.500000	66.323531
405.000000	66.191313
403.500000	66.006983
402.000000	65.792176
400.500000	65.724043
399.000000	65.579903
397.500000	65.433514
396.000000	65.263510
394.500000	65.090186
393.000000	64.979869
391.500000	64.750936
390.000000	64.554143
388.500000	64.351264
387.000000	64.104168
385.500000	63.855471
384.000000	63.543878
382.500000	63.148924
381.000000	62.703630
379.500000	62.384782
378.000000	62.111314
376.500000	62.362002
375.000000	62.294521
373.500000	61.230528
372.000000	60.156851
370.500000	58.847577
369.000000	57.276439
367.500000	55.617056
366.000000	53.765541
364.500000	51.471660
363.000000	48.876076
361.500000	45.642405
360.000000	42.153965
358.500000	38.092190
357.000000	33.521811
355.500000	28.715880
354.000000	23.642584
352.500000	18.660153
351.000000	13.938422
349.500000	9.863629
348.000000	6.578537
346.500000	4.073688
345.000000	2.370085
343.500000	1.300863
342.000000	0.656082
340.500000	0.299383
339.000000	0.114291
337.500000	0.054384
336.000000	0.035006
334.500000	0.027099
333.000000	0.026108
331.500000	0.036571
330.000000	0.023727
328.500000	0.039192
327.000000	0.039651
325.500000	0.038783
324.000000	0.049387
322.500000	0.051536
321.000000	0.060759
319.500000	0.049364
318.000000	-0.000282
316.500000	-0.028548
315.000000	-0.030527
313.500000	-0.031123
312.000000	-0.033032
310.500000	-0.030132
309.000000	-0.024995
307.500000	-0.024675
306.000000	-0.018100
304.500000	-0.012047
303.000000	-0.011317
301.500000	-0.019023
300.000000	-0.017214
