PE UV       SUBTECH     SPECTRUM    ASCII       PEDS        4.00        
   -1
Sample37.Sample.Raw.asc
20/12/15
12:08:14.00
20/12/15
12:08:14.00
Administrator

300.000000
1
Lambda 850
850L1710193
PerkinElmer UV WinLab 6.4.0.973 / 2.02.06 Lambda 800 UV/VIS, Jan 28 2016 16:58:34

0
0
2
0
0
UV/VIS
1
1
1
RBeamAtt,SBeamAtt,60mm sphere
0
0
0
0
Fix
 
0
0.2
0
0
0
 
 
 
0
 
0
319.2
0
Front
100
 
S:100 R:100
 
0
0
0
 
0
 
 
 
0
 
 
0
0
0
0
0
 
 
 
 
0
0


0
0
#HDR
-1
-1
#GR
nm
%T
1.0
0.0
750.000000
-1.500000
301
8
75.551597
-0.024609
#DATA
750.000000	75.184520
748.500000	75.394876
747.000000	75.340704
745.500000	75.485008
744.000000	75.531432
742.500000	75.551597
741.000000	75.487633
739.500000	75.344717
738.000000	75.517266
736.500000	75.529932
735.000000	75.527379
733.500000	75.531955
732.000000	75.372433
730.500000	75.437796
729.000000	75.297439
727.500000	75.269364
726.000000	75.325083
724.500000	75.338287
723.000000	75.250108
721.500000	75.258831
720.000000	75.181028
718.500000	75.223067
717.000000	75.202389
715.500000	75.228929
714.000000	75.240225
712.500000	75.196919
711.000000	75.177471
709.500000	75.202081
708.000000	75.164611
706.500000	75.134164
705.000000	75.176349
703.500000	75.115651
702.000000	75.176565
700.500000	75.159810
699.000000	75.082372
697.500000	75.049110
696.000000	75.019202
694.500000	75.035157
693.000000	75.025647
691.500000	74.999204
690.000000	74.907670
688.500000	75.018384
687.000000	75.015558
685.500000	74.982375
684.000000	74.977285
682.500000	75.071292
681.000000	75.004975
679.500000	74.925826
678.000000	74.968376
676.500000	74.926390
675.000000	74.959375
673.500000	74.915134
672.000000	74.963462
670.500000	74.980223
669.000000	74.884947
667.500000	74.839696
666.000000	74.855030
664.500000	74.827880
663.000000	74.873374
661.500000	74.888702
660.000000	74.808659
658.500000	74.786367
657.000000	74.772030
655.500000	74.792737
654.000000	74.745390
652.500000	74.696663
651.000000	74.720788
649.500000	74.676580
648.000000	74.662655
646.500000	74.666854
645.000000	74.635599
643.500000	74.632078
642.000000	74.649666
640.500000	74.604012
639.000000	74.582023
637.500000	74.593763
636.000000	74.632325
634.500000	74.582558
633.000000	74.505460
631.500000	74.516480
630.000000	74.483176
628.500000	74.463813
627.000000	74.472533
625.500000	74.434121
624.000000	74.439205
622.500000	74.388839
621.000000	74.323430
619.500000	74.367105
618.000000	74.338859
616.500000	74.355987
615.000000	74.334093
613.500000	74.257052
612.000000	74.256948
610.500000	74.279360
609.000000	74.220617
607.500000	74.233353
606.000000	74.209049
604.500000	74.161696
603.000000	74.179910
601.500000	74.196516
600.000000	74.167560
598.500000	74.135469
597.000000	74.085939
595.500000	74.026213
594.000000	74.031411
592.500000	74.029827
591.000000	73.992004
589.500000	73.987851
588.000000	74.017531
586.500000	73.963807
585.000000	73.916203
583.500000	73.890724
582.000000	73.893845
580.500000	73.895471
579.000000	73.819454
577.500000	73.783568
576.000000	73.774434
574.500000	73.725470
573.000000	73.743734
571.500000	73.767236
570.000000	73.727753
568.500000	73.705671
567.000000	73.650862
565.500000	73.567244
564.000000	73.567765
562.500000	73.569416
561.000000	73.703457
559.500000	73.833751
558.000000	73.833584
556.500000	73.816360
555.000000	73.800080
553.500000	73.785181
552.000000	73.762846
550.500000	73.772614
549.000000	73.759583
547.500000	73.745584
546.000000	73.743999
544.500000	73.758406
543.000000	73.710503
541.500000	73.691232
540.000000	73.721718
538.500000	73.714292
537.000000	73.703134
535.500000	73.710017
534.000000	73.719608
532.500000	73.715958
531.000000	73.663785
529.500000	73.620557
528.000000	73.642504
526.500000	73.662555
525.000000	73.641096
523.500000	73.585125
522.000000	73.531838
520.500000	73.468774
519.000000	73.372548
517.500000	73.220671
516.000000	73.056832
514.500000	72.877802
513.000000	72.642944
511.500000	72.390824
510.000000	72.140278
508.500000	71.880381
507.000000	71.633714
505.500000	71.420084
504.000000	71.216153
502.500000	71.122237
501.000000	71.086564
499.500000	71.048986
498.000000	71.095374
496.500000	71.136522
495.000000	71.210447
493.500000	71.273829
492.000000	71.341310
490.500000	71.555249
489.000000	71.689067
487.500000	71.786993
486.000000	71.964067
484.500000	72.190478
483.000000	72.497270
481.500000	72.874845
480.000000	73.026198
478.500000	72.812154
477.000000	72.606937
475.500000	72.460462
474.000000	72.345045
472.500000	72.215347
471.000000	72.083027
469.500000	71.878803
468.000000	71.617617
466.500000	71.315224
465.000000	71.060333
463.500000	70.794689
462.000000	70.592168
460.500000	70.399113
459.000000	70.268001
457.500000	70.184216
456.000000	70.093739
454.500000	70.037812
453.000000	70.061707
451.500000	70.047743
450.000000	70.010468
448.500000	69.920242
447.000000	69.936766
445.500000	69.994060
444.000000	70.244006
442.500000	70.376279
441.000000	70.319919
439.500000	70.234649
438.000000	70.109920
436.500000	70.075694
435.000000	70.057528
433.500000	70.029006
432.000000	69.927823
430.500000	69.796845
429.000000	69.776435
427.500000	69.778379
426.000000	69.675087
424.500000	69.558052
423.000000	69.547124
421.500000	69.457040
420.000000	69.394248
418.500000	69.284756
417.000000	69.202210
415.500000	69.111397
414.000000	69.007654
412.500000	69.003679
411.000000	68.824425
409.500000	68.715851
408.000000	68.664296
406.500000	68.531623
405.000000	68.491803
403.500000	68.301257
402.000000	68.194455
400.500000	68.089712
399.000000	67.920734
397.500000	67.780945
396.000000	67.707377
394.500000	67.555624
393.000000	67.395463
391.500000	67.288016
390.000000	67.095333
388.500000	66.874065
387.000000	66.777350
385.500000	66.456257
384.000000	66.325401
382.500000	66.005333
381.000000	65.792043
379.500000	65.391792
378.000000	65.392817
376.500000	65.835011
375.000000	65.942016
373.500000	65.062579
372.000000	64.151046
370.500000	63.263766
369.000000	61.885082
367.500000	60.806258
366.000000	59.140491
364.500000	57.373362
363.000000	55.248706
361.500000	52.759954
360.000000	49.763613
358.500000	46.388786
357.000000	42.349031
355.500000	37.844230
354.000000	32.980045
352.500000	27.804032
351.000000	22.559840
349.500000	17.518135
348.000000	12.886876
346.500000	8.796594
345.000000	5.528294
343.500000	3.146966
342.000000	1.570929
340.500000	0.685850
339.000000	0.243902
337.500000	0.078598
336.000000	0.032112
334.500000	0.019639
333.000000	0.023741
331.500000	0.023475
330.000000	0.029905
328.500000	0.030217
327.000000	0.035012
325.500000	0.036785
324.000000	0.027747
322.500000	0.036731
321.000000	0.035453
319.500000	0.035063
318.000000	0.006484
316.500000	-0.023482
315.000000	-0.021137
313.500000	-0.024609
312.000000	-0.021363
310.500000	-0.020053
309.000000	-0.021047
307.500000	-0.015890
306.000000	-0.001610
304.500000	0.001707
303.000000	0.000285
301.500000	-0.010836
300.000000	-0.011132
