PE UV       SUBTECH     SPECTRUM    ASCII       PEDS        4.00        
   -1
Sample270.Sample.Raw.asc
21/02/11
11:51:46.00
21/02/11
11:51:46.00
Administrator

300.000000
1
Lambda 850
850L1710193
PerkinElmer UV WinLab 6.4.0.973 / 2.02.06 Lambda 800 UV/VIS, Jan 28 2016 16:58:34

0
0
2
0
0
UV/VIS
1
1
1
RBeamAtt,SBeamAtt,60mm sphere
0
0
0
0
Fix
 
0
0.2
0
0
0
 
 
 
0
 
0
319.2
0
Front
100
 
S:100 R:100
 
0
0
0
 
0
 
 
 
0
 
 
0
0
0
0
0
 
 
 
 
0
0


0
0
#HDR
-1
-1
#GR
nm
%T
1.0
0.0
750.000000
-1.500000
301
8
72.901114
-0.029265
#DATA
750.000000	72.563916
748.500000	72.901114
747.000000	72.651907
745.500000	72.824064
744.000000	72.779020
742.500000	72.746935
741.000000	72.657118
739.500000	72.758158
738.000000	72.542382
736.500000	72.612951
735.000000	72.522299
733.500000	72.465155
732.000000	72.529881
730.500000	72.325883
729.000000	72.444003
727.500000	72.392363
726.000000	72.514547
724.500000	72.345186
723.000000	72.334727
721.500000	72.409948
720.000000	72.250036
718.500000	72.282108
717.000000	72.122055
715.500000	72.166106
714.000000	72.121806
712.500000	72.033248
711.000000	72.169267
709.500000	72.088295
708.000000	72.125922
706.500000	72.007743
705.000000	72.043545
703.500000	72.151423
702.000000	72.047901
700.500000	72.019210
699.000000	72.031424
697.500000	71.933667
696.000000	71.900362
694.500000	71.830391
693.000000	71.821307
691.500000	71.689214
690.000000	71.588817
688.500000	71.673274
687.000000	71.655946
685.500000	71.710910
684.000000	71.526211
682.500000	71.532603
681.000000	71.546959
679.500000	71.489474
678.000000	71.419944
676.500000	71.424916
675.000000	71.352887
673.500000	71.383829
672.000000	71.281517
670.500000	71.202776
669.000000	71.100891
667.500000	71.111307
666.000000	70.952255
664.500000	70.919433
663.000000	70.938572
661.500000	70.817294
660.000000	70.795695
658.500000	70.702105
657.000000	70.611436
655.500000	70.505029
654.000000	70.503912
652.500000	70.431033
651.000000	70.289708
649.500000	70.199286
648.000000	70.168327
646.500000	70.008846
645.000000	69.928782
643.500000	69.822279
642.000000	69.690390
640.500000	69.595685
639.000000	69.521079
637.500000	69.472298
636.000000	69.365078
634.500000	69.342662
633.000000	69.153060
631.500000	69.070467
630.000000	68.933379
628.500000	68.709260
627.000000	68.635906
625.500000	68.598123
624.000000	68.484852
622.500000	68.321242
621.000000	68.199063
619.500000	68.075890
618.000000	67.986011
616.500000	67.887088
615.000000	67.743043
613.500000	67.587292
612.000000	67.450409
610.500000	67.366495
609.000000	67.249348
607.500000	67.132764
606.000000	66.986214
604.500000	66.811460
603.000000	66.727660
601.500000	66.625384
600.000000	66.494536
598.500000	66.344127
597.000000	66.217144
595.500000	66.125999
594.000000	66.003872
592.500000	65.892053
591.000000	65.779189
589.500000	65.633877
588.000000	65.517758
586.500000	65.400407
585.000000	65.246645
583.500000	65.128838
582.000000	64.974358
580.500000	64.860819
579.000000	64.749363
577.500000	64.619509
576.000000	64.521742
574.500000	64.403155
573.000000	64.287778
571.500000	64.184602
570.000000	64.070512
568.500000	63.927117
567.000000	63.822026
565.500000	63.674194
564.000000	63.552262
562.500000	63.497588
561.000000	63.531507
559.500000	63.544143
558.000000	63.469885
556.500000	63.369128
555.000000	63.270081
553.500000	63.194966
552.000000	63.076240
550.500000	62.988561
549.000000	62.905983
547.500000	62.840020
546.000000	62.778210
544.500000	62.708011
543.000000	62.664067
541.500000	62.563345
540.000000	62.482161
538.500000	62.433912
537.000000	62.398598
535.500000	62.366625
534.000000	62.315415
532.500000	62.266023
531.000000	62.218665
529.500000	62.163183
528.000000	62.102752
526.500000	62.048453
525.000000	61.982537
523.500000	61.916692
522.000000	61.828684
520.500000	61.718192
519.000000	61.584970
517.500000	61.450004
516.000000	61.273298
514.500000	61.056082
513.000000	60.797040
511.500000	60.518926
510.000000	60.233165
508.500000	59.942283
507.000000	59.662206
505.500000	59.369773
504.000000	59.070152
502.500000	58.856165
501.000000	58.723165
499.500000	58.561119
498.000000	58.412528
496.500000	58.310893
495.000000	58.231837
493.500000	58.168455
492.000000	58.173049
490.500000	58.173316
489.000000	58.197646
487.500000	58.246291
486.000000	58.324174
484.500000	58.527347
483.000000	58.875394
481.500000	59.263002
480.000000	59.426886
478.500000	59.304790
477.000000	59.168711
475.500000	59.064531
474.000000	59.007304
472.500000	58.893477
471.000000	58.762566
469.500000	58.598690
468.000000	58.361920
466.500000	58.098723
465.000000	57.844987
463.500000	57.600415
462.000000	57.333375
460.500000	57.109540
459.000000	56.921554
457.500000	56.750478
456.000000	56.603439
454.500000	56.479194
453.000000	56.415667
451.500000	56.286870
450.000000	56.219349
448.500000	56.092508
447.000000	55.950099
445.500000	55.925926
444.000000	56.055372
442.500000	56.099134
441.000000	56.017886
439.500000	55.880145
438.000000	55.774245
436.500000	55.664122
435.000000	55.551855
433.500000	55.458155
432.000000	55.363941
430.500000	55.280873
429.000000	55.216743
427.500000	55.107476
426.000000	55.020100
424.500000	54.911560
423.000000	54.774107
421.500000	54.701756
420.000000	54.659539
418.500000	54.509455
417.000000	54.367173
415.500000	54.301776
414.000000	54.189454
412.500000	54.125158
411.000000	54.089337
409.500000	53.947390
408.000000	53.831898
406.500000	53.741494
405.000000	53.669497
403.500000	53.598584
402.000000	53.525295
400.500000	53.368689
399.000000	53.293120
397.500000	53.168946
396.000000	53.116979
394.500000	52.988038
393.000000	52.969519
391.500000	52.856017
390.000000	52.711253
388.500000	52.697570
387.000000	52.514771
385.500000	52.487555
384.000000	52.296565
382.500000	52.095780
381.000000	52.029341
379.500000	51.766175
378.000000	51.819262
376.500000	52.230690
375.000000	52.386977
373.500000	51.881123
372.000000	51.039224
370.500000	50.344845
369.000000	49.557091
367.500000	48.658444
366.000000	47.566999
364.500000	46.186404
363.000000	44.669023
361.500000	42.638327
360.000000	40.252647
358.500000	37.479938
357.000000	34.392986
355.500000	30.678340
354.000000	26.706515
352.500000	22.470797
351.000000	18.148898
349.500000	13.960592
348.000000	10.093705
346.500000	6.802269
345.000000	4.174219
343.500000	2.297668
342.000000	1.123017
340.500000	0.481274
339.000000	0.176082
337.500000	0.071187
336.000000	0.045377
334.500000	0.041137
333.000000	0.037922
331.500000	0.038976
330.000000	0.043560
328.500000	0.049712
327.000000	0.049083
325.500000	0.043583
324.000000	0.051387
322.500000	0.045472
321.000000	0.048222
319.500000	0.044210
318.000000	-0.000944
316.500000	-0.022707
315.000000	-0.028099
313.500000	-0.025576
312.000000	-0.029265
310.500000	-0.025992
309.000000	-0.017894
307.500000	-0.015185
306.000000	-0.009218
304.500000	-0.002761
303.000000	-0.005809
301.500000	-0.014587
300.000000	-0.017466
