PE UV       SUBTECH     SPECTRUM    ASCII       PEDS        4.00        
   -1
Sample116.Sample.Raw.asc
20/12/17
15:50:30.00
20/12/17
15:50:30.00
Administrator

300.000000
1
Lambda 850
850L1710193
PerkinElmer UV WinLab 6.4.0.973 / 2.02.06 Lambda 800 UV/VIS, Jan 28 2016 16:58:34

0
0
2
0
0
UV/VIS
1
1
1
RBeamAtt,SBeamAtt,60mm sphere
0
0
0
0
Fix
 
0
0.2
0
0
0
 
 
 
0
 
0
319.2
0
Front
100
 
S:100 R:100
 
0
0
0
 
0
 
 
 
0
 
 
0
0
0
0
0
 
 
 
 
0
0


0
0
#HDR
-1
-1
#GR
nm
%T
1.0
0.0
750.000000
-1.500000
301
8
75.865890
-0.022051
#DATA
750.000000	75.504199
748.500000	75.747935
747.000000	75.865890
745.500000	75.786752
744.000000	75.765318
742.500000	75.653665
741.000000	75.701182
739.500000	75.717753
738.000000	75.636163
736.500000	75.621577
735.000000	75.763452
733.500000	75.693477
732.000000	75.767128
730.500000	75.632077
729.000000	75.594449
727.500000	75.599659
726.000000	75.578993
724.500000	75.590588
723.000000	75.655530
721.500000	75.693892
720.000000	75.651980
718.500000	75.542301
717.000000	75.562619
715.500000	75.576943
714.000000	75.512956
712.500000	75.635867
711.000000	75.582518
709.500000	75.563118
708.000000	75.565025
706.500000	75.545055
705.000000	75.478837
703.500000	75.560073
702.000000	75.464219
700.500000	75.443819
699.000000	75.412990
697.500000	75.505983
696.000000	75.359958
694.500000	75.358645
693.000000	75.401998
691.500000	75.320797
690.000000	75.144500
688.500000	75.378215
687.000000	75.406734
685.500000	75.447659
684.000000	75.413853
682.500000	75.324844
681.000000	75.248352
679.500000	75.231811
678.000000	75.363921
676.500000	75.317426
675.000000	75.319967
673.500000	75.253583
672.000000	75.270533
670.500000	75.253592
669.000000	75.113820
667.500000	75.182001
666.000000	75.242315
664.500000	75.150606
663.000000	75.186274
661.500000	75.218064
660.000000	75.205979
658.500000	75.118215
657.000000	75.138324
655.500000	75.139926
654.000000	75.141734
652.500000	75.134575
651.000000	75.159180
649.500000	75.135762
648.000000	75.058925
646.500000	75.055472
645.000000	75.047289
643.500000	75.071278
642.000000	75.064228
640.500000	75.015267
639.000000	74.997922
637.500000	75.018315
636.000000	75.005001
634.500000	74.999650
633.000000	75.013731
631.500000	75.020364
630.000000	74.937434
628.500000	74.893539
627.000000	74.897649
625.500000	74.905823
624.000000	74.898996
622.500000	74.869850
621.000000	74.856632
619.500000	74.858764
618.000000	74.754033
616.500000	74.786009
615.000000	74.824067
613.500000	74.821574
612.000000	74.778801
610.500000	74.735186
609.000000	74.730259
607.500000	74.731395
606.000000	74.713926
604.500000	74.742567
603.000000	74.727077
601.500000	74.709403
600.000000	74.675866
598.500000	74.641851
597.000000	74.649685
595.500000	74.614532
594.000000	74.643098
592.500000	74.604741
591.000000	74.563341
589.500000	74.574885
588.000000	74.543642
586.500000	74.541872
585.000000	74.502977
583.500000	74.491707
582.000000	74.507535
580.500000	74.499339
579.000000	74.484148
577.500000	74.440025
576.000000	74.395188
574.500000	74.394034
573.000000	74.379009
571.500000	74.374279
570.000000	74.351573
568.500000	74.330391
567.000000	74.307603
565.500000	74.247105
564.000000	74.205378
562.500000	74.237427
561.000000	74.406313
559.500000	74.531965
558.000000	74.506372
556.500000	74.497872
555.000000	74.506085
553.500000	74.473407
552.000000	74.465598
550.500000	74.491649
549.000000	74.481312
547.500000	74.483609
546.000000	74.508564
544.500000	74.497338
543.000000	74.454696
541.500000	74.482455
540.000000	74.472253
538.500000	74.452251
537.000000	74.498777
535.500000	74.515305
534.000000	74.509810
532.500000	74.499115
531.000000	74.489791
529.500000	74.512821
528.000000	74.522304
526.500000	74.514579
525.000000	74.504556
523.500000	74.474345
522.000000	74.420414
520.500000	74.355871
519.000000	74.268713
517.500000	74.170440
516.000000	74.005901
514.500000	73.836367
513.000000	73.624207
511.500000	73.375959
510.000000	73.130804
508.500000	72.892336
507.000000	72.626894
505.500000	72.449746
504.000000	72.303817
502.500000	72.199475
501.000000	72.172689
499.500000	72.145004
498.000000	72.146957
496.500000	72.241380
495.000000	72.333874
493.500000	72.440724
492.000000	72.556863
490.500000	72.690134
489.000000	72.842569
487.500000	73.005837
486.000000	73.138850
484.500000	73.380130
483.000000	73.730908
481.500000	74.145495
480.000000	74.314504
478.500000	74.129528
477.000000	73.907032
475.500000	73.838522
474.000000	73.709174
472.500000	73.605485
471.000000	73.456659
469.500000	73.282094
468.000000	73.058675
466.500000	72.812168
465.000000	72.552401
463.500000	72.272156
462.000000	72.081178
460.500000	71.936930
459.000000	71.784335
457.500000	71.680977
456.000000	71.653395
454.500000	71.632179
453.000000	71.663473
451.500000	71.618056
450.000000	71.635555
448.500000	71.688985
447.000000	71.676520
445.500000	71.701609
444.000000	71.946677
442.500000	72.141710
441.000000	72.012913
439.500000	71.994525
438.000000	71.908920
436.500000	71.838013
435.000000	71.822617
433.500000	71.712931
432.000000	71.686284
430.500000	71.683020
429.000000	71.554944
427.500000	71.495725
426.000000	71.481819
424.500000	71.480955
423.000000	71.332411
421.500000	71.324274
420.000000	71.242126
418.500000	71.130546
417.000000	71.173540
415.500000	71.052797
414.000000	70.954952
412.500000	70.869505
411.000000	70.881969
409.500000	70.850656
408.000000	70.808672
406.500000	70.675989
405.000000	70.554106
403.500000	70.485423
402.000000	70.424045
400.500000	70.360059
399.000000	70.346568
397.500000	70.251383
396.000000	70.140874
394.500000	70.036348
393.000000	69.955041
391.500000	69.846943
390.000000	69.692748
388.500000	69.580995
387.000000	69.395952
385.500000	69.163628
384.000000	69.077428
382.500000	68.912164
381.000000	68.613561
379.500000	68.472463
378.000000	68.283377
376.500000	68.922656
375.000000	69.126658
373.500000	68.200864
372.000000	67.285795
370.500000	66.270015
369.000000	65.169959
367.500000	63.871882
366.000000	62.147712
364.500000	60.363981
363.000000	58.308142
361.500000	55.662083
360.000000	52.526127
358.500000	49.005039
357.000000	44.919729
355.500000	40.261813
354.000000	35.007604
352.500000	29.724204
351.000000	24.152531
349.500000	18.777724
348.000000	13.854138
346.500000	9.532369
345.000000	6.018457
343.500000	3.445645
342.000000	1.737470
340.500000	0.769349
339.000000	0.279185
337.500000	0.110613
336.000000	0.060952
334.500000	0.058594
333.000000	0.060951
331.500000	0.062343
330.000000	0.062502
328.500000	0.065838
327.000000	0.057861
325.500000	0.060021
324.000000	0.078158
322.500000	0.070535
321.000000	0.067320
319.500000	0.071561
318.000000	0.008175
316.500000	-0.019232
315.000000	-0.022051
313.500000	-0.017277
312.000000	-0.021906
310.500000	-0.018060
309.000000	-0.021125
307.500000	-0.005863
306.000000	0.000474
304.500000	0.002085
303.000000	-0.001329
301.500000	-0.005508
300.000000	-0.003900
