PE UV       SUBTECH     SPECTRUM    ASCII       PEDS        4.00        
   -1
Sample128.Sample.Raw.asc
20/12/17
16:48:19.00
20/12/17
16:48:19.00
Administrator

300.000000
1
Lambda 850
850L1710193
PerkinElmer UV WinLab 6.4.0.973 / 2.02.06 Lambda 800 UV/VIS, Jan 28 2016 16:58:34

0
0
2
0
0
UV/VIS
1
1
1
RBeamAtt,SBeamAtt,60mm sphere
0
0
0
0
Fix
 
0
0.2
0
0
0
 
 
 
0
 
0
319.2
0
Front
100
 
S:100 R:100
 
0
0
0
 
0
 
 
 
0
 
 
0
0
0
0
0
 
 
 
 
0
0


0
0
#HDR
-1
-1
#GR
nm
%T
1.0
0.0
750.000000
-1.500000
301
8
74.130423
-0.040282
#DATA
750.000000	73.901947
748.500000	74.040603
747.000000	74.119201
745.500000	74.130423
744.000000	74.047086
742.500000	73.996055
741.000000	74.005394
739.500000	74.043911
738.000000	73.992327
736.500000	73.902604
735.000000	73.950534
733.500000	73.990199
732.000000	73.964642
730.500000	73.889614
729.000000	73.919544
727.500000	73.889865
726.000000	73.884865
724.500000	74.043741
723.000000	74.016004
721.500000	73.940068
720.000000	73.916180
718.500000	73.917936
717.000000	73.996886
715.500000	73.881732
714.000000	73.819873
712.500000	73.855098
711.000000	73.933068
709.500000	73.836889
708.000000	73.848053
706.500000	73.879781
705.000000	73.791587
703.500000	73.946683
702.000000	73.876772
700.500000	73.816985
699.000000	73.696213
697.500000	73.768583
696.000000	73.722582
694.500000	73.744988
693.000000	73.712266
691.500000	73.617908
690.000000	73.578803
688.500000	73.696751
687.000000	73.678937
685.500000	73.704185
684.000000	73.715938
682.500000	73.616986
681.000000	73.573092
679.500000	73.547920
678.000000	73.644469
676.500000	73.647713
675.000000	73.675725
673.500000	73.557158
672.000000	73.593863
670.500000	73.602825
669.000000	73.567157
667.500000	73.552460
666.000000	73.576773
664.500000	73.455333
663.000000	73.540704
661.500000	73.526947
660.000000	73.470869
658.500000	73.444478
657.000000	73.461351
655.500000	73.501995
654.000000	73.469193
652.500000	73.490490
651.000000	73.443465
649.500000	73.397477
648.000000	73.312523
646.500000	73.348449
645.000000	73.336328
643.500000	73.280314
642.000000	73.303204
640.500000	73.280989
639.000000	73.217097
637.500000	73.265935
636.000000	73.240873
634.500000	73.271310
633.000000	73.248266
631.500000	73.184217
630.000000	73.198937
628.500000	73.211096
627.000000	73.185455
625.500000	73.152575
624.000000	73.142868
622.500000	73.110400
621.000000	73.120063
619.500000	73.113474
618.000000	73.023469
616.500000	72.999497
615.000000	73.027265
613.500000	73.025112
612.000000	73.000880
610.500000	72.931257
609.000000	72.916400
607.500000	72.947462
606.000000	72.941221
604.500000	72.930308
603.000000	72.941728
601.500000	72.879047
600.000000	72.888073
598.500000	72.867099
597.000000	72.820210
595.500000	72.754371
594.000000	72.763055
592.500000	72.753461
591.000000	72.721053
589.500000	72.710230
588.000000	72.705912
586.500000	72.685762
585.000000	72.635915
583.500000	72.652632
582.000000	72.654466
580.500000	72.605535
579.000000	72.572331
577.500000	72.512711
576.000000	72.485665
574.500000	72.476000
573.000000	72.404109
571.500000	72.392310
570.000000	72.411426
568.500000	72.373829
567.000000	72.297510
565.500000	72.269323
564.000000	72.212854
562.500000	72.180425
561.000000	72.354804
559.500000	72.497244
558.000000	72.485949
556.500000	72.441385
555.000000	72.413429
553.500000	72.390806
552.000000	72.363983
550.500000	72.369992
549.000000	72.321372
547.500000	72.280606
546.000000	72.282404
544.500000	72.269955
543.000000	72.234690
541.500000	72.198455
540.000000	72.173295
538.500000	72.153257
537.000000	72.168248
535.500000	72.171254
534.000000	72.156356
532.500000	72.129427
531.000000	72.107797
529.500000	72.102717
528.000000	72.080073
526.500000	72.064091
525.000000	72.009749
523.500000	71.943323
522.000000	71.887181
520.500000	71.816528
519.000000	71.704769
517.500000	71.578555
516.000000	71.425952
514.500000	71.239474
513.000000	71.031670
511.500000	70.800636
510.000000	70.542705
508.500000	70.309239
507.000000	70.096853
505.500000	69.942048
504.000000	69.818004
502.500000	69.785873
501.000000	69.757791
499.500000	69.754413
498.000000	69.815076
496.500000	69.925108
495.000000	70.101190
493.500000	70.225154
492.000000	70.355338
490.500000	70.515150
489.000000	70.710848
487.500000	70.820208
486.000000	70.949535
484.500000	71.124238
483.000000	71.411178
481.500000	71.706639
480.000000	71.801603
478.500000	71.524629
477.000000	71.284710
475.500000	71.135373
474.000000	70.971659
472.500000	70.815662
471.000000	70.648452
469.500000	70.413966
468.000000	70.187855
466.500000	69.927286
465.000000	69.645285
463.500000	69.419759
462.000000	69.237661
460.500000	69.141964
459.000000	69.027878
457.500000	68.925101
456.000000	68.975262
454.500000	68.916474
453.000000	68.976830
451.500000	68.989204
450.000000	69.011721
448.500000	69.037166
447.000000	69.062197
445.500000	69.116961
444.000000	69.369998
442.500000	69.587703
441.000000	69.347216
439.500000	69.322647
438.000000	69.179900
436.500000	69.114825
435.000000	69.058414
433.500000	69.009626
432.000000	68.956113
430.500000	68.907907
429.000000	68.774042
427.500000	68.686322
426.000000	68.636983
424.500000	68.537679
423.000000	68.436339
421.500000	68.457868
420.000000	68.311283
418.500000	68.170881
417.000000	68.186749
415.500000	68.080852
414.000000	67.938474
412.500000	67.802636
411.000000	67.813675
409.500000	67.656827
408.000000	67.532105
406.500000	67.456220
405.000000	67.227193
403.500000	67.130240
402.000000	67.077389
400.500000	66.931491
399.000000	66.815834
397.500000	66.713144
396.000000	66.571182
394.500000	66.458796
393.000000	66.162534
391.500000	66.104369
390.000000	65.914350
388.500000	65.673845
387.000000	65.429301
385.500000	65.126049
384.000000	64.921906
382.500000	64.714505
381.000000	64.383921
379.500000	64.025215
378.000000	63.829711
376.500000	64.299557
375.000000	64.206858
373.500000	63.016389
372.000000	61.974322
370.500000	60.608795
369.000000	59.328696
367.500000	57.667693
366.000000	55.697615
364.500000	53.322745
363.000000	50.518086
361.500000	47.292774
360.000000	43.533315
358.500000	39.346679
357.000000	34.570914
355.500000	29.354809
354.000000	24.020799
352.500000	18.770565
351.000000	13.904639
349.500000	9.668281
348.000000	6.334701
346.500000	3.856676
345.000000	2.224615
343.500000	1.194036
342.000000	0.597503
340.500000	0.279873
339.000000	0.135194
337.500000	0.078308
336.000000	0.059192
334.500000	0.063315
333.000000	0.063175
331.500000	0.058910
330.000000	0.054805
328.500000	0.056459
327.000000	0.062226
325.500000	0.064767
324.000000	0.053873
322.500000	0.041091
321.000000	0.043451
319.500000	0.040905
318.000000	-0.001316
316.500000	-0.025142
315.000000	-0.027587
313.500000	-0.040282
312.000000	-0.033940
310.500000	-0.034050
309.000000	-0.028386
307.500000	-0.020521
306.000000	-0.016480
304.500000	-0.016111
303.000000	-0.015374
301.500000	-0.017000
300.000000	-0.017218
