PE UV       SUBTECH     SPECTRUM    ASCII       PEDS        4.00        
   -1
Sample72.Sample.Raw.asc
20/12/15
17:24:52.00
20/12/15
17:24:52.00
Administrator

300.000000
1
Lambda 850
850L1710193
PerkinElmer UV WinLab 6.4.0.973 / 2.02.06 Lambda 800 UV/VIS, Jan 28 2016 16:58:34

0
0
2
0
0
UV/VIS
1
1
1
RBeamAtt,SBeamAtt,60mm sphere
0
0
0
0
Fix
 
0
0.2
0
0
0
 
 
 
0
 
0
319.2
0
Front
100
 
S:100 R:100
 
0
0
0
 
0
 
 
 
0
 
 
0
0
0
0
0
 
 
 
 
0
0


0
0
#HDR
-1
-1
#GR
nm
%T
1.0
0.0
750.000000
-1.500000
301
8
75.618673
-0.026233
#DATA
750.000000	74.878190
748.500000	75.618673
747.000000	75.452668
745.500000	75.431212
744.000000	75.495921
742.500000	75.468104
741.000000	75.360479
739.500000	75.287583
738.000000	75.422162
736.500000	75.380239
735.000000	75.478626
733.500000	75.438524
732.000000	75.359514
730.500000	75.394856
729.000000	75.300133
727.500000	75.281835
726.000000	75.208219
724.500000	75.387193
723.000000	75.238724
721.500000	75.193456
720.000000	75.214105
718.500000	75.221891
717.000000	75.196736
715.500000	75.159180
714.000000	75.216678
712.500000	75.156754
711.000000	75.249200
709.500000	75.051167
708.000000	75.094855
706.500000	75.171223
705.000000	75.100671
703.500000	75.122095
702.000000	75.073754
700.500000	74.998104
699.000000	75.064516
697.500000	75.027113
696.000000	75.139749
694.500000	75.021525
693.000000	74.973841
691.500000	74.911174
690.000000	74.784686
688.500000	75.017038
687.000000	74.989979
685.500000	75.017970
684.000000	74.979143
682.500000	74.974751
681.000000	74.959214
679.500000	74.931330
678.000000	74.939993
676.500000	74.842793
675.000000	74.882157
673.500000	74.856615
672.000000	74.802412
670.500000	74.825630
669.000000	74.852304
667.500000	74.874003
666.000000	74.808215
664.500000	74.820757
663.000000	74.866083
661.500000	74.763098
660.000000	74.724427
658.500000	74.712069
657.000000	74.680632
655.500000	74.667995
654.000000	74.636600
652.500000	74.653967
651.000000	74.677231
649.500000	74.681180
648.000000	74.670382
646.500000	74.650311
645.000000	74.532482
643.500000	74.545787
642.000000	74.538894
640.500000	74.454561
639.000000	74.534545
637.500000	74.503908
636.000000	74.467022
634.500000	74.457711
633.000000	74.470825
631.500000	74.527059
630.000000	74.439702
628.500000	74.476215
627.000000	74.447120
625.500000	74.443033
624.000000	74.479481
622.500000	74.425574
621.000000	74.339924
619.500000	74.392617
618.000000	74.372490
616.500000	74.288731
615.000000	74.289832
613.500000	74.299001
612.000000	74.261693
610.500000	74.271785
609.000000	74.231165
607.500000	74.160783
606.000000	74.126954
604.500000	74.107528
603.000000	74.111791
601.500000	74.141124
600.000000	74.145768
598.500000	74.146839
597.000000	74.169469
595.500000	74.141001
594.000000	74.097876
592.500000	74.092569
591.000000	74.053734
589.500000	74.034710
588.000000	74.011221
586.500000	73.983767
585.000000	73.992088
583.500000	73.976954
582.000000	73.972258
580.500000	73.941001
579.000000	73.907892
577.500000	73.886715
576.000000	73.864789
574.500000	73.851095
573.000000	73.879559
571.500000	73.872219
570.000000	73.799946
568.500000	73.753253
567.000000	73.690718
565.500000	73.636885
564.000000	73.599794
562.500000	73.631262
561.000000	73.776841
559.500000	73.894129
558.000000	73.889065
556.500000	73.868881
555.000000	73.840068
553.500000	73.849635
552.000000	73.876256
550.500000	73.864768
549.000000	73.833682
547.500000	73.825776
546.000000	73.847629
544.500000	73.869974
543.000000	73.834166
541.500000	73.803896
540.000000	73.810125
538.500000	73.807502
537.000000	73.810331
535.500000	73.826313
534.000000	73.833837
532.500000	73.838210
531.000000	73.839008
529.500000	73.851592
528.000000	73.835877
526.500000	73.809465
525.000000	73.799514
523.500000	73.762096
522.000000	73.728733
520.500000	73.679767
519.000000	73.568169
517.500000	73.435776
516.000000	73.288363
514.500000	73.102429
513.000000	72.861520
511.500000	72.607096
510.000000	72.351995
508.500000	72.083837
507.000000	71.847242
505.500000	71.651360
504.000000	71.491050
502.500000	71.399986
501.000000	71.361523
499.500000	71.358324
498.000000	71.380705
496.500000	71.443312
495.000000	71.503958
493.500000	71.586226
492.000000	71.719188
490.500000	71.805793
489.000000	71.952339
487.500000	72.140464
486.000000	72.273382
484.500000	72.491667
483.000000	72.842334
481.500000	73.274649
480.000000	73.397378
478.500000	73.196035
477.000000	72.988605
475.500000	72.858493
474.000000	72.741603
472.500000	72.645344
471.000000	72.509056
469.500000	72.331727
468.000000	72.060807
466.500000	71.831622
465.000000	71.579525
463.500000	71.308027
462.000000	71.087263
460.500000	70.937367
459.000000	70.775987
457.500000	70.730115
456.000000	70.643368
454.500000	70.666934
453.000000	70.643189
451.500000	70.599926
450.000000	70.610607
448.500000	70.615765
447.000000	70.539036
445.500000	70.576807
444.000000	70.799377
442.500000	70.985391
441.000000	70.961434
439.500000	70.857920
438.000000	70.758098
436.500000	70.733932
435.000000	70.653976
433.500000	70.595250
432.000000	70.560509
430.500000	70.498465
429.000000	70.442657
427.500000	70.344725
426.000000	70.294635
424.500000	70.261560
423.000000	70.152938
421.500000	70.053807
420.000000	69.965768
418.500000	69.902549
417.000000	69.869852
415.500000	69.694846
414.000000	69.657596
412.500000	69.519667
411.000000	69.521345
409.500000	69.355636
408.000000	69.324902
406.500000	69.135485
405.000000	69.004573
403.500000	68.929633
402.000000	68.795448
400.500000	68.663390
399.000000	68.534212
397.500000	68.446970
396.000000	68.327280
394.500000	68.172688
393.000000	68.120696
391.500000	67.915657
390.000000	67.761545
388.500000	67.611443
387.000000	67.405574
385.500000	67.236710
384.000000	67.010319
382.500000	66.764696
381.000000	66.367890
379.500000	66.140091
378.000000	66.001225
376.500000	66.699916
375.000000	66.774114
373.500000	65.951383
372.000000	65.006395
370.500000	63.914431
369.000000	62.833340
367.500000	61.492829
366.000000	59.957531
364.500000	58.264934
363.000000	56.156140
361.500000	53.537988
360.000000	50.490569
358.500000	47.061603
357.000000	42.943392
355.500000	38.498351
354.000000	33.417683
352.500000	28.171449
351.000000	22.844878
349.500000	17.655608
348.000000	12.879118
346.500000	8.816501
345.000000	5.487794
343.500000	3.103707
342.000000	1.549353
340.500000	0.664537
339.000000	0.249050
337.500000	0.094500
336.000000	0.045657
334.500000	0.042227
333.000000	0.036107
331.500000	0.049010
330.000000	0.049865
328.500000	0.046529
327.000000	0.050144
325.500000	0.054221
324.000000	0.065292
322.500000	0.065768
321.000000	0.067002
319.500000	0.052444
318.000000	0.011758
316.500000	-0.015307
315.000000	-0.016344
313.500000	-0.026233
312.000000	-0.022962
310.500000	-0.024671
309.000000	-0.009338
307.500000	-0.002742
306.000000	0.004170
304.500000	0.004364
303.000000	-0.003329
301.500000	-0.002378
300.000000	-0.003899
