PE UV       SUBTECH     SPECTRUM    ASCII       PEDS        4.00        
   -1
Sample70.Sample.Raw.asc
20/12/15
17:18:43.00
20/12/15
17:18:43.00
Administrator

300.000000
1
Lambda 850
850L1710193
PerkinElmer UV WinLab 6.4.0.973 / 2.02.06 Lambda 800 UV/VIS, Jan 28 2016 16:58:34

0
0
2
0
0
UV/VIS
1
1
1
RBeamAtt,SBeamAtt,60mm sphere
0
0
0
0
Fix
 
0
0.2
0
0
0
 
 
 
0
 
0
319.2
0
Front
100
 
S:100 R:100
 
0
0
0
 
0
 
 
 
0
 
 
0
0
0
0
0
 
 
 
 
0
0


0
0
#HDR
-1
-1
#GR
nm
%T
1.0
0.0
750.000000
-1.500000
301
8
75.426533
-0.042728
#DATA
750.000000	75.042744
748.500000	75.349716
747.000000	75.336597
745.500000	75.406267
744.000000	75.409083
742.500000	75.403468
741.000000	75.351998
739.500000	75.155057
738.000000	75.426533
736.500000	75.236234
735.000000	75.237067
733.500000	75.203765
732.000000	75.148269
730.500000	75.199606
729.000000	75.188039
727.500000	75.059153
726.000000	75.158516
724.500000	75.252326
723.000000	75.098370
721.500000	75.092449
720.000000	75.041749
718.500000	75.078353
717.000000	74.949399
715.500000	75.032064
714.000000	75.049893
712.500000	74.992524
711.000000	75.161094
709.500000	75.029520
708.000000	75.050471
706.500000	74.964003
705.000000	75.010805
703.500000	74.966423
702.000000	74.974111
700.500000	74.893414
699.000000	75.004674
697.500000	74.842579
696.000000	74.862659
694.500000	74.863197
693.000000	74.790361
691.500000	74.818142
690.000000	74.687866
688.500000	74.858232
687.000000	74.806896
685.500000	74.865043
684.000000	74.776181
682.500000	74.805821
681.000000	74.864982
679.500000	74.791859
678.000000	74.746660
676.500000	74.733003
675.000000	74.763618
673.500000	74.675295
672.000000	74.646376
670.500000	74.680096
669.000000	74.642030
667.500000	74.704940
666.000000	74.584285
664.500000	74.662360
663.000000	74.699138
661.500000	74.639051
660.000000	74.593795
658.500000	74.502053
657.000000	74.565081
655.500000	74.504108
654.000000	74.491092
652.500000	74.455060
651.000000	74.517758
649.500000	74.509230
648.000000	74.480983
646.500000	74.498796
645.000000	74.441383
643.500000	74.407997
642.000000	74.460867
640.500000	74.419513
639.000000	74.397179
637.500000	74.332817
636.000000	74.299465
634.500000	74.272249
633.000000	74.311181
631.500000	74.324705
630.000000	74.292638
628.500000	74.284909
627.000000	74.270165
625.500000	74.262842
624.000000	74.265544
622.500000	74.233954
621.000000	74.217704
619.500000	74.246420
618.000000	74.157817
616.500000	74.127759
615.000000	74.135242
613.500000	74.136213
612.000000	74.100259
610.500000	74.075000
609.000000	74.081378
607.500000	74.053438
606.000000	74.007088
604.500000	73.956945
603.000000	73.976006
601.500000	73.989513
600.000000	73.973676
598.500000	73.961685
597.000000	73.968084
595.500000	73.953267
594.000000	73.972267
592.500000	73.933374
591.000000	73.872657
589.500000	73.871505
588.000000	73.859247
586.500000	73.804000
585.000000	73.779071
583.500000	73.795068
582.000000	73.778427
580.500000	73.758646
579.000000	73.743518
577.500000	73.736027
576.000000	73.733751
574.500000	73.679203
573.000000	73.670143
571.500000	73.669900
570.000000	73.619978
568.500000	73.580326
567.000000	73.544225
565.500000	73.505825
564.000000	73.455416
562.500000	73.432430
561.000000	73.560998
559.500000	73.693737
558.000000	73.687095
556.500000	73.690184
555.000000	73.686304
553.500000	73.698982
552.000000	73.725493
550.500000	73.722848
549.000000	73.656319
547.500000	73.631423
546.000000	73.683567
544.500000	73.686996
543.000000	73.654639
541.500000	73.623740
540.000000	73.621221
538.500000	73.626983
537.000000	73.624712
535.500000	73.641712
534.000000	73.656408
532.500000	73.654975
531.000000	73.652467
529.500000	73.633252
528.000000	73.611360
526.500000	73.613175
525.000000	73.614563
523.500000	73.576137
522.000000	73.509715
520.500000	73.464495
519.000000	73.391319
517.500000	73.251740
516.000000	73.088539
514.500000	72.913844
513.000000	72.688740
511.500000	72.448047
510.000000	72.181919
508.500000	71.931121
507.000000	71.701648
505.500000	71.514336
504.000000	71.311124
502.500000	71.225064
501.000000	71.190487
499.500000	71.213980
498.000000	71.223763
496.500000	71.243900
495.000000	71.351020
493.500000	71.434834
492.000000	71.573406
490.500000	71.625910
489.000000	71.751052
487.500000	71.959066
486.000000	72.093317
484.500000	72.306608
483.000000	72.644325
481.500000	73.080354
480.000000	73.240052
478.500000	73.047139
477.000000	72.811011
475.500000	72.676302
474.000000	72.565700
472.500000	72.457405
471.000000	72.298948
469.500000	72.111466
468.000000	71.878996
466.500000	71.658840
465.000000	71.373804
463.500000	71.086590
462.000000	70.858628
460.500000	70.742041
459.000000	70.641083
457.500000	70.557868
456.000000	70.482555
454.500000	70.451907
453.000000	70.368455
451.500000	70.392690
450.000000	70.397925
448.500000	70.412569
447.000000	70.357812
445.500000	70.424976
444.000000	70.678024
442.500000	70.773288
441.000000	70.776630
439.500000	70.712669
438.000000	70.560185
436.500000	70.547175
435.000000	70.411159
433.500000	70.340599
432.000000	70.335151
430.500000	70.302102
429.000000	70.223962
427.500000	70.132965
426.000000	70.105043
424.500000	70.032927
423.000000	69.924223
421.500000	69.827226
420.000000	69.819432
418.500000	69.705904
417.000000	69.646991
415.500000	69.478103
414.000000	69.448764
412.500000	69.283395
411.000000	69.329863
409.500000	69.153583
408.000000	69.120761
406.500000	68.996015
405.000000	68.890146
403.500000	68.761000
402.000000	68.633894
400.500000	68.507691
399.000000	68.373739
397.500000	68.328494
396.000000	68.129609
394.500000	68.050614
393.000000	68.003381
391.500000	67.787768
390.000000	67.643293
388.500000	67.541078
387.000000	67.316054
385.500000	67.144348
384.000000	66.859456
382.500000	66.647330
381.000000	66.294422
379.500000	66.140631
378.000000	65.918872
376.500000	66.493482
375.000000	66.718916
373.500000	65.745645
372.000000	64.906188
370.500000	63.835673
369.000000	62.729625
367.500000	61.421864
366.000000	59.905652
364.500000	58.141958
363.000000	56.080891
361.500000	53.460813
360.000000	50.405690
358.500000	46.949507
357.000000	42.937801
355.500000	38.421818
354.000000	33.338588
352.500000	28.057671
351.000000	22.810315
349.500000	17.535719
348.000000	12.843499
346.500000	8.752955
345.000000	5.467974
343.500000	3.093352
342.000000	1.538996
340.500000	0.655207
339.000000	0.257108
337.500000	0.098391
336.000000	0.072235
334.500000	0.059675
333.000000	0.053513
331.500000	0.058384
330.000000	0.063119
328.500000	0.062318
327.000000	0.061008
325.500000	0.063801
324.000000	0.055526
322.500000	0.059722
321.000000	0.085453
319.500000	0.075026
318.000000	-0.007525
316.500000	-0.042728
315.000000	-0.039920
313.500000	-0.036012
312.000000	-0.039431
310.500000	-0.033804
309.000000	-0.025278
307.500000	-0.019381
306.000000	-0.016205
304.500000	-0.012901
303.000000	-0.013695
301.500000	-0.017691
300.000000	-0.012934
