PE UV       SUBTECH     SPECTRUM    ASCII       PEDS        4.00        
   -1
Sample230.Sample.Raw.asc
21/02/05
14:37:44.00
21/02/05
14:37:44.00
Administrator

300.000000
1
Lambda 850
850L1710193
PerkinElmer UV WinLab 6.4.0.973 / 2.02.06 Lambda 800 UV/VIS, Jan 28 2016 16:58:34

0
0
2
0
0
UV/VIS
1
1
1
RBeamAtt,SBeamAtt,60mm sphere
0
0
0
0
Fix
 
0
0.2
0
0
0
 
 
 
0
 
0
340
0
Front
100
 
S:100 R:100
 
0
0
0
 
0
 
 
 
0
 
 
0
0
0
0
0
 
 
 
 
0
0


0
0
#HDR
-1
-1
#GR
nm
%T
1.0
0.0
750.000000
-1.500000
301
8
74.368496
-0.046248
#DATA
750.000000	74.079940
748.500000	74.368496
747.000000	74.302593
745.500000	74.115427
744.000000	74.243318
742.500000	74.356326
741.000000	74.257007
739.500000	74.207724
738.000000	74.183169
736.500000	74.266455
735.000000	74.184871
733.500000	74.195988
732.000000	74.116164
730.500000	74.097019
729.000000	74.170308
727.500000	74.150323
726.000000	74.181563
724.500000	73.993195
723.000000	74.211280
721.500000	74.101624
720.000000	74.103430
718.500000	73.935759
717.000000	74.095276
715.500000	74.125133
714.000000	74.061820
712.500000	74.083233
711.000000	74.006800
709.500000	73.974836
708.000000	73.916559
706.500000	74.007439
705.000000	74.128568
703.500000	73.966312
702.000000	73.980055
700.500000	73.891689
699.000000	74.077574
697.500000	73.962421
696.000000	73.859054
694.500000	73.809553
693.000000	73.809677
691.500000	73.804516
690.000000	73.646873
688.500000	73.878381
687.000000	73.857902
685.500000	73.822993
684.000000	73.814376
682.500000	73.823905
681.000000	73.764683
679.500000	73.828904
678.000000	73.785705
676.500000	73.769374
675.000000	73.713783
673.500000	73.732614
672.000000	73.707862
670.500000	73.691542
669.000000	73.686996
667.500000	73.675204
666.000000	73.646851
664.500000	73.626652
663.000000	73.582672
661.500000	73.614989
660.000000	73.649238
658.500000	73.589838
657.000000	73.587287
655.500000	73.527657
654.000000	73.541072
652.500000	73.492408
651.000000	73.455487
649.500000	73.444572
648.000000	73.459952
646.500000	73.457127
645.000000	73.425995
643.500000	73.383560
642.000000	73.426278
640.500000	73.387019
639.000000	73.360815
637.500000	73.282032
636.000000	73.261412
634.500000	73.298503
633.000000	73.284433
631.500000	73.278183
630.000000	73.252742
628.500000	73.182882
627.000000	73.143190
625.500000	73.140280
624.000000	73.155601
622.500000	73.172938
621.000000	73.131204
619.500000	73.065897
618.000000	73.057712
616.500000	73.051848
615.000000	72.995411
613.500000	72.964409
612.000000	72.952526
610.500000	72.965559
609.000000	72.915656
607.500000	72.880946
606.000000	72.922612
604.500000	72.913516
603.000000	72.850154
601.500000	72.806297
600.000000	72.812239
598.500000	72.770945
597.000000	72.758917
595.500000	72.721166
594.000000	72.725772
592.500000	72.665808
591.000000	72.619585
589.500000	72.604742
588.000000	72.598918
586.500000	72.592098
585.000000	72.570095
583.500000	72.539841
582.000000	72.500233
580.500000	72.434827
579.000000	72.366735
577.500000	72.338419
576.000000	72.337056
574.500000	72.303269
573.000000	72.284914
571.500000	72.268388
570.000000	72.225064
568.500000	72.192028
567.000000	72.130547
565.500000	72.051529
564.000000	72.006879
562.500000	71.979717
561.000000	72.089500
559.500000	72.173078
558.000000	72.132262
556.500000	72.131376
555.000000	72.114361
553.500000	72.059726
552.000000	72.060296
550.500000	72.035824
549.000000	71.983124
547.500000	71.967091
546.000000	71.961756
544.500000	71.931389
543.000000	71.898386
541.500000	71.845492
540.000000	71.813803
538.500000	71.810135
537.000000	71.808266
535.500000	71.786821
534.000000	71.772080
532.500000	71.746233
531.000000	71.715523
529.500000	71.699428
528.000000	71.670632
526.500000	71.588773
525.000000	71.526244
523.500000	71.467741
522.000000	71.395463
520.500000	71.306000
519.000000	71.197477
517.500000	71.071685
516.000000	70.901049
514.500000	70.696143
513.000000	70.463554
511.500000	70.257075
510.000000	70.014398
508.500000	69.770305
507.000000	69.536637
505.500000	69.372403
504.000000	69.236606
502.500000	69.155371
501.000000	69.147674
499.500000	69.152147
498.000000	69.207231
496.500000	69.335345
495.000000	69.461105
493.500000	69.605026
492.000000	69.723271
490.500000	69.847855
489.000000	69.962847
487.500000	70.114658
486.000000	70.289660
484.500000	70.451770
483.000000	70.659198
481.500000	70.940295
480.000000	70.964809
478.500000	70.636330
477.000000	70.371740
475.500000	70.187338
474.000000	70.061052
472.500000	69.920008
471.000000	69.720748
469.500000	69.490592
468.000000	69.227516
466.500000	68.975599
465.000000	68.687710
463.500000	68.465294
462.000000	68.221570
460.500000	68.093124
459.000000	68.025674
457.500000	67.894507
456.000000	67.888056
454.500000	67.869244
453.000000	67.855580
451.500000	67.873379
450.000000	67.860364
448.500000	67.872247
447.000000	67.929626
445.500000	67.932975
444.000000	68.193998
442.500000	68.371365
441.000000	68.230282
439.500000	68.110467
438.000000	68.024728
436.500000	67.929078
435.000000	67.824573
433.500000	67.833990
432.000000	67.788518
430.500000	67.738758
429.000000	67.598315
427.500000	67.546914
426.000000	67.470475
424.500000	67.419900
423.000000	67.282616
421.500000	67.217075
420.000000	67.121797
418.500000	67.000365
417.000000	66.915655
415.500000	66.843323
414.000000	66.768254
412.500000	66.690381
411.000000	66.558249
409.500000	66.480555
408.000000	66.320518
406.500000	66.235742
405.000000	66.160722
403.500000	65.997016
402.000000	65.843888
400.500000	65.762773
399.000000	65.557859
397.500000	65.428842
396.000000	65.344997
394.500000	65.137080
393.000000	64.964259
391.500000	64.838744
390.000000	64.688271
388.500000	64.408863
387.000000	64.237134
385.500000	63.973118
384.000000	63.670881
382.500000	63.424653
381.000000	62.939567
379.500000	62.554296
378.000000	62.287934
376.500000	62.782785
375.000000	62.475117
373.500000	61.535859
372.000000	60.521497
370.500000	59.055080
369.000000	57.567189
367.500000	56.016309
366.000000	54.172213
364.500000	51.842731
363.000000	49.067517
361.500000	45.880581
360.000000	42.105331
358.500000	38.111024
357.000000	33.300277
355.500000	28.240751
354.000000	23.140121
352.500000	18.130098
351.000000	13.421117
349.500000	9.420327
348.000000	6.201374
346.500000	3.847848
345.000000	2.228431
343.500000	1.212334
342.000000	0.615303
340.500000	0.277009
339.000000	0.068984
337.500000	-0.017389
336.000000	-0.029059
334.500000	-0.041967
333.000000	-0.028629
331.500000	-0.046248
330.000000	-0.021409
328.500000	-0.033432
327.000000	-0.020678
325.500000	-0.035828
324.000000	-0.023782
322.500000	-0.033788
321.000000	-0.032843
319.500000	-0.024218
318.000000	-0.005463
316.500000	-0.040014
315.000000	-0.039966
313.500000	-0.036692
312.000000	-0.034716
310.500000	-0.028263
309.000000	-0.026485
307.500000	-0.017012
306.000000	-0.021410
304.500000	-0.008735
303.000000	-0.017101
301.500000	-0.020060
300.000000	-0.019299
