PE UV       SUBTECH     SPECTRUM    ASCII       PEDS        4.00        
   -1
Sample160.Sample.Raw.asc
21/01/27
12:44:00.00
21/01/27
12:44:00.00
Administrator

300.000000
1
Lambda 850
850L1710193
PerkinElmer UV WinLab 6.4.0.973 / 2.02.06 Lambda 800 UV/VIS, Jan 28 2016 16:58:34

0
0
2
0
0
UV/VIS
1
1
1
RBeamAtt,SBeamAtt,60mm sphere
0
0
0
0
Fix
 
0
0.2
0
0
0
 
 
 
0
 
0
319.2
0
Front
100
 
S:100 R:100
 
0
0
0
 
0
 
 
 
0
 
 
0
0
0
0
0
 
 
 
 
0
0


0
0
#HDR
-1
-1
#GR
nm
%T
1.0
0.0
750.000000
-1.500000
301
8
74.530750
-0.028776
#DATA
750.000000	74.067874
748.500000	74.387363
747.000000	74.392731
745.500000	74.473004
744.000000	74.193335
742.500000	74.310593
741.000000	74.259769
739.500000	74.530750
738.000000	74.242839
736.500000	74.371366
735.000000	74.204750
733.500000	74.151443
732.000000	74.278847
730.500000	74.160083
729.000000	74.177441
727.500000	74.166813
726.000000	74.048291
724.500000	74.226117
723.000000	74.213339
721.500000	74.159955
720.000000	74.058293
718.500000	74.094119
717.000000	74.009937
715.500000	73.948406
714.000000	74.064766
712.500000	73.941792
711.000000	73.989274
709.500000	73.995567
708.000000	73.921679
706.500000	73.913910
705.000000	73.910432
703.500000	73.899867
702.000000	73.931976
700.500000	73.862017
699.000000	73.883839
697.500000	73.854137
696.000000	73.826060
694.500000	73.868361
693.000000	73.765625
691.500000	73.824180
690.000000	73.550715
688.500000	73.745424
687.000000	73.723419
685.500000	73.720215
684.000000	73.775059
682.500000	73.654560
681.000000	73.629307
679.500000	73.642588
678.000000	73.618991
676.500000	73.538236
675.000000	73.550870
673.500000	73.549293
672.000000	73.474071
670.500000	73.521302
669.000000	73.523048
667.500000	73.468734
666.000000	73.507481
664.500000	73.444814
663.000000	73.328450
661.500000	73.358093
660.000000	73.315358
658.500000	73.282359
657.000000	73.297730
655.500000	73.174605
654.000000	73.168514
652.500000	73.151735
651.000000	73.113866
649.500000	73.067620
648.000000	73.024588
646.500000	73.022254
645.000000	72.981580
643.500000	72.951141
642.000000	72.836924
640.500000	72.836192
639.000000	72.775919
637.500000	72.786134
636.000000	72.666781
634.500000	72.643265
633.000000	72.572826
631.500000	72.551967
630.000000	72.526027
628.500000	72.445721
627.000000	72.383587
625.500000	72.336343
624.000000	72.312678
622.500000	72.257702
621.000000	72.201508
619.500000	72.194599
618.000000	72.133554
616.500000	72.090445
615.000000	72.025491
613.500000	71.968279
612.000000	71.904151
610.500000	71.893740
609.000000	71.819201
607.500000	71.769197
606.000000	71.707589
604.500000	71.661867
603.000000	71.634034
601.500000	71.562094
600.000000	71.494768
598.500000	71.450765
597.000000	71.414047
595.500000	71.358784
594.000000	71.295013
592.500000	71.256722
591.000000	71.182254
589.500000	71.113412
588.000000	71.098418
586.500000	71.076049
585.000000	70.991932
583.500000	70.891961
582.000000	70.848618
580.500000	70.826931
579.000000	70.791240
577.500000	70.703395
576.000000	70.638475
574.500000	70.625665
573.000000	70.540647
571.500000	70.467082
570.000000	70.426621
568.500000	70.359517
567.000000	70.276925
565.500000	70.211827
564.000000	70.168768
562.500000	70.170234
561.000000	70.249096
559.500000	70.343300
558.000000	70.352370
556.500000	70.292382
555.000000	70.236947
553.500000	70.211946
552.000000	70.184997
550.500000	70.154140
549.000000	70.116993
547.500000	70.081958
546.000000	70.018155
544.500000	69.977306
543.000000	69.995706
541.500000	70.006114
540.000000	69.976823
538.500000	69.924999
537.000000	69.912783
535.500000	69.891414
534.000000	69.847554
532.500000	69.853836
531.000000	69.868342
529.500000	69.868944
528.000000	69.823777
526.500000	69.790615
525.000000	69.786331
523.500000	69.741333
522.000000	69.668634
520.500000	69.562627
519.000000	69.466153
517.500000	69.369507
516.000000	69.194762
514.500000	68.974265
513.000000	68.744086
511.500000	68.520844
510.000000	68.256286
508.500000	67.983772
507.000000	67.715546
505.500000	67.464291
504.000000	67.268115
502.500000	67.120522
501.000000	67.020264
499.500000	66.954597
498.000000	66.884459
496.500000	66.899630
495.000000	66.902826
493.500000	66.945552
492.000000	67.026809
490.500000	67.074632
489.000000	67.180462
487.500000	67.313180
486.000000	67.446503
484.500000	67.597219
483.000000	67.977120
481.500000	68.415487
480.000000	68.570543
478.500000	68.389252
477.000000	68.174587
475.500000	68.074474
474.000000	67.988138
472.500000	67.867116
471.000000	67.735951
469.500000	67.540207
468.000000	67.299298
466.500000	67.021186
465.000000	66.780890
463.500000	66.514356
462.000000	66.272614
460.500000	66.066774
459.000000	65.918786
457.500000	65.784020
456.000000	65.676590
454.500000	65.619017
453.000000	65.564064
451.500000	65.509711
450.000000	65.435906
448.500000	65.353362
447.000000	65.261823
445.500000	65.253837
444.000000	65.529926
442.500000	65.629387
441.000000	65.512633
439.500000	65.464414
438.000000	65.343148
436.500000	65.232001
435.000000	65.132130
433.500000	65.063595
432.000000	65.004647
430.500000	64.945615
429.000000	64.840079
427.500000	64.693546
426.000000	64.626892
424.500000	64.548150
423.000000	64.464613
421.500000	64.387896
420.000000	64.322376
418.500000	64.259369
417.000000	64.136518
415.500000	64.039827
414.000000	63.926345
412.500000	63.790358
411.000000	63.761234
409.500000	63.572791
408.000000	63.480753
406.500000	63.450657
405.000000	63.275066
403.500000	63.176541
402.000000	63.106196
400.500000	63.032948
399.000000	62.943135
397.500000	62.819796
396.000000	62.669286
394.500000	62.585370
393.000000	62.383880
391.500000	62.306659
390.000000	62.163351
388.500000	62.102845
387.000000	61.895174
385.500000	61.687683
384.000000	61.522459
382.500000	61.302227
381.000000	61.143004
379.500000	60.812537
378.000000	60.604895
376.500000	61.205332
375.000000	61.272990
373.500000	60.537740
372.000000	59.725506
370.500000	59.079255
369.000000	58.121661
367.500000	56.992379
366.000000	55.802532
364.500000	54.351134
363.000000	52.609121
361.500000	50.450613
360.000000	48.051541
358.500000	45.280319
357.000000	41.957929
355.500000	38.056817
354.000000	33.872998
352.500000	29.200029
351.000000	24.383094
349.500000	19.569852
348.000000	14.946083
346.500000	10.743773
345.000000	7.185818
343.500000	4.353598
342.000000	2.365725
340.500000	1.124436
339.000000	0.457234
337.500000	0.170037
336.000000	0.069787
334.500000	0.043259
333.000000	0.046576
331.500000	0.049876
330.000000	0.053264
328.500000	0.051006
327.000000	0.051811
325.500000	0.047031
324.000000	0.047105
322.500000	0.054828
321.000000	0.057328
319.500000	0.042156
318.000000	0.001133
316.500000	-0.026440
315.000000	-0.024560
313.500000	-0.024772
312.000000	-0.028776
310.500000	-0.021243
309.000000	-0.017493
307.500000	-0.014964
306.000000	-0.004935
304.500000	-0.004184
303.000000	-0.008187
301.500000	-0.008957
300.000000	-0.010026
