PE UV       SUBTECH     SPECTRUM    ASCII       PEDS        4.00        
   -1
Sample145.Sample.Raw.asc
21/01/19
15:17:57.00
21/01/19
15:17:57.00
Administrator

300.000000
1
Lambda 850
850L1710193
PerkinElmer UV WinLab 6.4.0.973 / 2.02.06 Lambda 800 UV/VIS, Jan 28 2016 16:58:34

0
0
2
0
0
UV/VIS
1
1
1
RBeamAtt,SBeamAtt,60mm sphere
0
0
0
0
Fix
 
0
0.2
0
0
0
 
 
 
0
 
0
319.2
0
Front
100
 
S:100 R:100
 
0
0
0
 
0
 
 
 
0
 
 
0
0
0
0
0
 
 
 
 
0
0


0
0
#HDR
-1
-1
#GR
nm
%T
1.0
0.0
750.000000
-1.500000
301
8
74.545716
-0.023050
#DATA
750.000000	74.145704
748.500000	74.323998
747.000000	74.399421
745.500000	74.545716
744.000000	74.467119
742.500000	74.397328
741.000000	74.460773
739.500000	74.471809
738.000000	74.467695
736.500000	74.378511
735.000000	74.374200
733.500000	74.442879
732.000000	74.373559
730.500000	74.284604
729.000000	74.379588
727.500000	74.304169
726.000000	74.262543
724.500000	74.269686
723.000000	74.366540
721.500000	74.350901
720.000000	74.156320
718.500000	74.218247
717.000000	74.242835
715.500000	74.143703
714.000000	74.199727
712.500000	74.244922
711.000000	74.178185
709.500000	74.198958
708.000000	74.218920
706.500000	74.324748
705.000000	74.272906
703.500000	74.350683
702.000000	74.199504
700.500000	74.149059
699.000000	74.243133
697.500000	74.119213
696.000000	74.087302
694.500000	74.055051
693.000000	74.101103
691.500000	74.012194
690.000000	73.914388
688.500000	73.986942
687.000000	74.023230
685.500000	74.099380
684.000000	74.031631
682.500000	74.102932
681.000000	74.076071
679.500000	74.043566
678.000000	74.037715
676.500000	74.029000
675.000000	74.039402
673.500000	73.981065
672.000000	73.979698
670.500000	73.959765
669.000000	73.977132
667.500000	73.873404
666.000000	73.917711
664.500000	73.941722
663.000000	73.858789
661.500000	73.827829
660.000000	73.958018
658.500000	73.850147
657.000000	73.850893
655.500000	73.814664
654.000000	73.793539
652.500000	73.747275
651.000000	73.800203
649.500000	73.764435
648.000000	73.700209
646.500000	73.726192
645.000000	73.734218
643.500000	73.734132
642.000000	73.660624
640.500000	73.711900
639.000000	73.666849
637.500000	73.683551
636.000000	73.696631
634.500000	73.656503
633.000000	73.603855
631.500000	73.591325
630.000000	73.586761
628.500000	73.593463
627.000000	73.584323
625.500000	73.556329
624.000000	73.534321
622.500000	73.445764
621.000000	73.456999
619.500000	73.500426
618.000000	73.474584
616.500000	73.445119
615.000000	73.446635
613.500000	73.408922
612.000000	73.425816
610.500000	73.390818
609.000000	73.380327
607.500000	73.346840
606.000000	73.334446
604.500000	73.307149
603.000000	73.280877
601.500000	73.299394
600.000000	73.323011
598.500000	73.259493
597.000000	73.218678
595.500000	73.158421
594.000000	73.129303
592.500000	73.172722
591.000000	73.140038
589.500000	73.117458
588.000000	73.093777
586.500000	73.046498
585.000000	73.027702
583.500000	73.017763
582.000000	73.021989
580.500000	73.009627
579.000000	72.982284
577.500000	72.931693
576.000000	72.963730
574.500000	72.943825
573.000000	72.915753
571.500000	72.865803
570.000000	72.800114
568.500000	72.766420
567.000000	72.744349
565.500000	72.703555
564.000000	72.650060
562.500000	72.666926
561.000000	72.831669
559.500000	72.902872
558.000000	72.866134
556.500000	72.865257
555.000000	72.832335
553.500000	72.810324
552.000000	72.793909
550.500000	72.773585
549.000000	72.773658
547.500000	72.753384
546.000000	72.702834
544.500000	72.720186
543.000000	72.745404
541.500000	72.715299
540.000000	72.669016
538.500000	72.632063
537.000000	72.646768
535.500000	72.646463
534.000000	72.617043
532.500000	72.612613
531.000000	72.614075
529.500000	72.585743
528.000000	72.560450
526.500000	72.529402
525.000000	72.468173
523.500000	72.406843
522.000000	72.345957
520.500000	72.287469
519.000000	72.191170
517.500000	72.062550
516.000000	71.890890
514.500000	71.710753
513.000000	71.507661
511.500000	71.267343
510.000000	71.008387
508.500000	70.766547
507.000000	70.567041
505.500000	70.411296
504.000000	70.275663
502.500000	70.215020
501.000000	70.197893
499.500000	70.227632
498.000000	70.335783
496.500000	70.452446
495.000000	70.550532
493.500000	70.686818
492.000000	70.888561
490.500000	70.985156
489.000000	71.134922
487.500000	71.317997
486.000000	71.428786
484.500000	71.584084
483.000000	71.862732
481.500000	72.184210
480.000000	72.256817
478.500000	71.972131
477.000000	71.702744
475.500000	71.586156
474.000000	71.449282
472.500000	71.313965
471.000000	71.109835
469.500000	70.902243
468.000000	70.641523
466.500000	70.420078
465.000000	70.142235
463.500000	69.913528
462.000000	69.701599
460.500000	69.537630
459.000000	69.452583
457.500000	69.401216
456.000000	69.387151
454.500000	69.391854
453.000000	69.385008
451.500000	69.429021
450.000000	69.482227
448.500000	69.517110
447.000000	69.555886
445.500000	69.569052
444.000000	69.739246
442.500000	69.923589
441.000000	69.881905
439.500000	69.728927
438.000000	69.657979
436.500000	69.644662
435.000000	69.633833
433.500000	69.494627
432.000000	69.409100
430.500000	69.348872
429.000000	69.319443
427.500000	69.237405
426.000000	69.228306
424.500000	69.122390
423.000000	69.018968
421.500000	68.983733
420.000000	68.917368
418.500000	68.803385
417.000000	68.745365
415.500000	68.689101
414.000000	68.644225
412.500000	68.552711
411.000000	68.415369
409.500000	68.379976
408.000000	68.217182
406.500000	68.125322
405.000000	68.072499
403.500000	67.903098
402.000000	67.855787
400.500000	67.770131
399.000000	67.506316
397.500000	67.474090
396.000000	67.403245
394.500000	67.267753
393.000000	67.094251
391.500000	66.975352
390.000000	66.834767
388.500000	66.652411
387.000000	66.391518
385.500000	66.196973
384.000000	65.943146
382.500000	65.700272
381.000000	65.292490
379.500000	64.890842
378.000000	64.796779
376.500000	65.246054
375.000000	65.129511
373.500000	64.262669
372.000000	62.927202
370.500000	61.543650
369.000000	60.238836
367.500000	58.532331
366.000000	56.516469
364.500000	53.977692
363.000000	51.253951
361.500000	47.756187
360.000000	43.892610
358.500000	39.567416
357.000000	34.539166
355.500000	29.297878
354.000000	23.981935
352.500000	18.608549
351.000000	13.665315
349.500000	9.489808
348.000000	6.177254
346.500000	3.752964
345.000000	2.131802
343.500000	1.131190
342.000000	0.551220
340.500000	0.252620
339.000000	0.109001
337.500000	0.046557
336.000000	0.031531
334.500000	0.021072
333.000000	0.032327
331.500000	0.031493
330.000000	0.022533
328.500000	0.032013
327.000000	0.030067
325.500000	0.040249
324.000000	0.037982
322.500000	0.037012
321.000000	0.038496
319.500000	0.014197
318.000000	0.006968
316.500000	-0.023050
315.000000	-0.022772
313.500000	-0.018265
312.000000	-0.019042
310.500000	-0.011319
309.000000	-0.008880
307.500000	-0.001797
306.000000	-0.000379
304.500000	0.004940
303.000000	0.003333
301.500000	-0.003047
300.000000	0.001906
