PE UV       SUBTECH     SPECTRUM    ASCII       PEDS        4.00        
   -1
Sample6.Sample.Raw.asc
21/03/26
11:41:29.00
21/03/26
11:41:29.00
Administrator

300.000000
1
Lambda 850
850L1710193
PerkinElmer UV WinLab 6.4.0.973 / 2.02.06 Lambda 800 UV/VIS, Jan 28 2016 16:58:34

0
0
2
0
0
UV/VIS
1
1
1
RBeamAtt,SBeamAtt,60mm sphere
0
0
0
0
Fix
 
0
0.2
0
0
0
 
 
 
0
 
0
340
0
Front
100
 
S:100 R:100
 
0
0
0
 
0
 
 
 
0
 
 
0
0
0
0
0
 
 
 
 
0
0


0
0
#HDR
-1
-1
#GR
nm
%T
1.0
0.0
750.000000
-1.500000
301
8
75.466416
-0.024148
#DATA
750.000000	75.028612
748.500000	75.331885
747.000000	75.191920
745.500000	75.404510
744.000000	75.223736
742.500000	75.466416
741.000000	75.370894
739.500000	75.321472
738.000000	75.438523
736.500000	75.218163
735.000000	75.295653
733.500000	75.309733
732.000000	75.311701
730.500000	75.306531
729.000000	75.143550
727.500000	75.308302
726.000000	75.298043
724.500000	75.211160
723.000000	75.064116
721.500000	75.234899
720.000000	75.252257
718.500000	75.232518
717.000000	75.238180
715.500000	75.134231
714.000000	75.191826
712.500000	75.133766
711.000000	75.094417
709.500000	75.155016
708.000000	75.122802
706.500000	75.153533
705.000000	75.107610
703.500000	75.062253
702.000000	75.049102
700.500000	75.184569
699.000000	75.123004
697.500000	75.055321
696.000000	75.019971
694.500000	74.956454
693.000000	74.994402
691.500000	74.881414
690.000000	74.706009
688.500000	74.893602
687.000000	74.907303
685.500000	74.963540
684.000000	74.963954
682.500000	74.977734
681.000000	75.031937
679.500000	74.905908
678.000000	74.762458
676.500000	74.842699
675.000000	74.826540
673.500000	74.872560
672.000000	74.802916
670.500000	74.855856
669.000000	74.772780
667.500000	74.790605
666.000000	74.783881
664.500000	74.762899
663.000000	74.778310
661.500000	74.724540
660.000000	74.805516
658.500000	74.709913
657.000000	74.767893
655.500000	74.675177
654.000000	74.715076
652.500000	74.675055
651.000000	74.645632
649.500000	74.596491
648.000000	74.617827
646.500000	74.680204
645.000000	74.611175
643.500000	74.640172
642.000000	74.573524
640.500000	74.594727
639.000000	74.560202
637.500000	74.558139
636.000000	74.557833
634.500000	74.521299
633.000000	74.454306
631.500000	74.409651
630.000000	74.462716
628.500000	74.486807
627.000000	74.440951
625.500000	74.379677
624.000000	74.399482
622.500000	74.370778
621.000000	74.345844
619.500000	74.346695
618.000000	74.326752
616.500000	74.310499
615.000000	74.318993
613.500000	74.283022
612.000000	74.253254
610.500000	74.225713
609.000000	74.212559
607.500000	74.197135
606.000000	74.153382
604.500000	74.174746
603.000000	74.165435
601.500000	74.101786
600.000000	74.107636
598.500000	74.105096
597.000000	74.075086
595.500000	74.094244
594.000000	74.022143
592.500000	74.018660
591.000000	74.059833
589.500000	74.032868
588.000000	73.971105
586.500000	73.993784
585.000000	74.009895
583.500000	73.962681
582.000000	73.935814
580.500000	73.884177
579.000000	73.876559
577.500000	73.873775
576.000000	73.847608
574.500000	73.796858
573.000000	73.784003
571.500000	73.791371
570.000000	73.730554
568.500000	73.699693
567.000000	73.688358
565.500000	73.636219
564.000000	73.592244
562.500000	73.664291
561.000000	73.828893
559.500000	73.895182
558.000000	73.869596
556.500000	73.857556
555.000000	73.857289
553.500000	73.826550
552.000000	73.820799
550.500000	73.806260
549.000000	73.770588
547.500000	73.790754
546.000000	73.815158
544.500000	73.822315
543.000000	73.823500
541.500000	73.818382
540.000000	73.820294
538.500000	73.794657
537.000000	73.778040
535.500000	73.788054
534.000000	73.822369
532.500000	73.853468
531.000000	73.828747
529.500000	73.847122
528.000000	73.820568
526.500000	73.785230
525.000000	73.791125
523.500000	73.745876
522.000000	73.719164
520.500000	73.645599
519.000000	73.556187
517.500000	73.447570
516.000000	73.281203
514.500000	73.109781
513.000000	72.900868
511.500000	72.634179
510.000000	72.388509
508.500000	72.158984
507.000000	71.902720
505.500000	71.708149
504.000000	71.574874
502.500000	71.447618
501.000000	71.413448
499.500000	71.415893
498.000000	71.440254
496.500000	71.499597
495.000000	71.548201
493.500000	71.628828
492.000000	71.778223
490.500000	71.908964
489.000000	71.977667
487.500000	72.144362
486.000000	72.324172
484.500000	72.557301
483.000000	72.873134
481.500000	73.291437
480.000000	73.425771
478.500000	73.215131
477.000000	72.982417
475.500000	72.843256
474.000000	72.747823
472.500000	72.687254
471.000000	72.512192
469.500000	72.342562
468.000000	72.112357
466.500000	71.847862
465.000000	71.588633
463.500000	71.350196
462.000000	71.172945
460.500000	71.029026
459.000000	70.876329
457.500000	70.801434
456.000000	70.716362
454.500000	70.678295
453.000000	70.682068
451.500000	70.643728
450.000000	70.668074
448.500000	70.712362
447.000000	70.624325
445.500000	70.659926
444.000000	70.878547
442.500000	71.063782
441.000000	70.995035
439.500000	70.919906
438.000000	70.833246
436.500000	70.743527
435.000000	70.667993
433.500000	70.671755
432.000000	70.650375
430.500000	70.503051
429.000000	70.451482
427.500000	70.381285
426.000000	70.395534
424.500000	70.278012
423.000000	70.208884
421.500000	70.158636
420.000000	70.108641
418.500000	69.978260
417.000000	69.958118
415.500000	69.927747
414.000000	69.845806
412.500000	69.716972
411.000000	69.646478
409.500000	69.566070
408.000000	69.531825
406.500000	69.406635
405.000000	69.284089
403.500000	69.230869
402.000000	69.143624
400.500000	69.105122
399.000000	69.057862
397.500000	68.948255
396.000000	68.820862
394.500000	68.759898
393.000000	68.577574
391.500000	68.477582
390.000000	68.384539
388.500000	68.112753
387.000000	68.120007
385.500000	67.927037
384.000000	67.786404
382.500000	67.542308
381.000000	67.308574
379.500000	67.014141
378.000000	66.836309
376.500000	67.477032
375.000000	67.719685
373.500000	66.820792
372.000000	65.747056
370.500000	64.840649
369.000000	63.716291
367.500000	62.231131
366.000000	60.660200
364.500000	58.813100
363.000000	56.509000
361.500000	53.794163
360.000000	50.733460
358.500000	46.895758
357.000000	42.658810
355.500000	37.803602
354.000000	32.685762
352.500000	27.242648
351.000000	21.772726
349.500000	16.568879
348.000000	11.838477
346.500000	7.851884
345.000000	4.747557
343.500000	2.540518
342.000000	1.213625
340.500000	0.492633
339.000000	0.166801
337.500000	0.020242
336.000000	-0.018566
334.500000	-0.014302
333.000000	-0.017094
331.500000	-0.012285
330.000000	-0.014063
328.500000	-0.020415
327.000000	-0.009783
325.500000	-0.016236
324.000000	-0.018485
322.500000	-0.011212
321.000000	-0.006259
319.500000	-0.017967
318.000000	0.013265
316.500000	-0.020675
315.000000	-0.024148
313.500000	-0.023807
312.000000	-0.017604
310.500000	-0.016016
309.000000	-0.010182
307.500000	-0.007946
306.000000	-0.003317
304.500000	0.005128
303.000000	0.001899
301.500000	-0.009124
300.000000	-0.007614
