PE UV       SUBTECH     SPECTRUM    ASCII       PEDS        4.00        
   -1
Sample11.Sample.Raw.asc
21/03/30
11:39:21.00
21/03/30
11:39:21.00
Administrator

300.000000
1
Lambda 850
850L1710193
PerkinElmer UV WinLab 6.4.0.973 / 2.02.06 Lambda 800 UV/VIS, Jan 28 2016 16:58:34

0
0
2
0
0
UV/VIS
1
1
1
RBeamAtt,SBeamAtt,60mm sphere
0
0
0
0
Fix
 
0
0.2
0
0
0
 
 
 
0
 
0
340
0
Front
100
 
S:100 R:100
 
0
0
0
 
0
 
 
 
0
 
 
0
0
0
0
0
 
 
 
 
0
0


0
0
#HDR
-1
-1
#GR
nm
%T
1.0
0.0
750.000000
-1.500000
301
8
74.267442
-0.027980
#DATA
750.000000	73.789840
748.500000	74.115699
747.000000	74.267442
745.500000	74.103684
744.000000	74.226950
742.500000	74.098747
741.000000	73.968391
739.500000	73.909940
738.000000	74.068211
736.500000	74.025953
735.000000	74.010488
733.500000	74.041195
732.000000	74.055302
730.500000	74.102071
729.000000	73.907412
727.500000	73.920788
726.000000	73.859905
724.500000	73.858920
723.000000	73.921975
721.500000	73.927318
720.000000	73.803557
718.500000	73.754308
717.000000	73.721472
715.500000	73.800769
714.000000	73.694966
712.500000	73.672169
711.000000	73.742381
709.500000	73.703562
708.000000	73.656694
706.500000	73.589342
705.000000	73.558839
703.500000	73.511993
702.000000	73.610396
700.500000	73.597802
699.000000	73.629996
697.500000	73.540672
696.000000	73.686160
694.500000	73.469178
693.000000	73.494970
691.500000	73.426042
690.000000	73.305004
688.500000	73.403873
687.000000	73.339643
685.500000	73.318071
684.000000	73.415555
682.500000	73.384992
681.000000	73.404783
679.500000	73.359152
678.000000	73.374632
676.500000	73.235631
675.000000	73.214877
673.500000	73.111660
672.000000	73.100375
670.500000	73.081383
669.000000	73.170573
667.500000	73.040878
666.000000	73.025651
664.500000	72.914289
663.000000	72.977624
661.500000	72.905327
660.000000	72.869344
658.500000	72.902863
657.000000	72.799617
655.500000	72.740579
654.000000	72.727602
652.500000	72.779384
651.000000	72.666096
649.500000	72.554018
648.000000	72.579027
646.500000	72.532206
645.000000	72.444955
643.500000	72.448483
642.000000	72.414256
640.500000	72.338807
639.000000	72.323862
637.500000	72.297949
636.000000	72.184651
634.500000	72.155459
633.000000	72.113946
631.500000	72.031352
630.000000	72.002859
628.500000	71.931340
627.000000	71.875897
625.500000	71.816246
624.000000	71.700930
622.500000	71.704826
621.000000	71.634204
619.500000	71.563312
618.000000	71.513707
616.500000	71.465342
615.000000	71.429809
613.500000	71.331640
612.000000	71.265937
610.500000	71.229984
609.000000	71.211420
607.500000	71.129852
606.000000	71.060490
604.500000	70.988446
603.000000	70.917998
601.500000	70.863905
600.000000	70.790932
598.500000	70.718598
597.000000	70.672065
595.500000	70.598679
594.000000	70.517854
592.500000	70.482349
591.000000	70.437621
589.500000	70.362273
588.000000	70.331400
586.500000	70.237888
585.000000	70.164624
583.500000	70.091340
582.000000	70.050154
580.500000	70.056902
579.000000	70.018553
577.500000	69.911328
576.000000	69.825256
574.500000	69.770935
573.000000	69.695306
571.500000	69.657786
570.000000	69.602423
568.500000	69.543829
567.000000	69.446109
565.500000	69.337557
564.000000	69.257094
562.500000	69.228460
561.000000	69.333608
559.500000	69.454911
558.000000	69.435395
556.500000	69.344135
555.000000	69.292624
553.500000	69.275946
552.000000	69.219706
550.500000	69.167278
549.000000	69.115277
547.500000	69.097855
546.000000	69.075236
544.500000	69.043795
543.000000	69.000913
541.500000	68.957636
540.000000	68.936775
538.500000	68.933444
537.000000	68.939639
535.500000	68.903834
534.000000	68.870726
532.500000	68.828014
531.000000	68.799246
529.500000	68.796441
528.000000	68.783299
526.500000	68.768860
525.000000	68.722465
523.500000	68.663303
522.000000	68.594137
520.500000	68.518043
519.000000	68.407383
517.500000	68.283173
516.000000	68.132075
514.500000	67.918915
513.000000	67.681802
511.500000	67.430280
510.000000	67.149795
508.500000	66.903609
507.000000	66.658239
505.500000	66.380111
504.000000	66.186206
502.500000	66.034609
501.000000	65.933849
499.500000	65.819662
498.000000	65.828164
496.500000	65.829639
495.000000	65.803062
493.500000	65.834676
492.000000	65.906100
490.500000	65.992351
489.000000	66.089711
487.500000	66.221318
486.000000	66.357233
484.500000	66.524877
483.000000	66.916052
481.500000	67.314483
480.000000	67.509399
478.500000	67.285985
477.000000	67.068409
475.500000	66.955642
474.000000	66.894689
472.500000	66.760960
471.000000	66.651802
469.500000	66.447493
468.000000	66.177568
466.500000	65.952727
465.000000	65.670701
463.500000	65.449996
462.000000	65.192706
460.500000	64.989888
459.000000	64.858203
457.500000	64.764932
456.000000	64.669317
454.500000	64.573663
453.000000	64.532341
451.500000	64.457602
450.000000	64.355842
448.500000	64.332535
447.000000	64.248895
445.500000	64.190376
444.000000	64.447560
442.500000	64.544106
441.000000	64.493724
439.500000	64.355790
438.000000	64.299880
436.500000	64.165875
435.000000	64.103403
433.500000	64.018725
432.000000	63.903376
430.500000	63.828938
429.000000	63.733167
427.500000	63.637491
426.000000	63.615112
424.500000	63.577320
423.000000	63.371986
421.500000	63.309908
420.000000	63.316339
418.500000	63.192759
417.000000	63.062520
415.500000	62.989643
414.000000	62.842275
412.500000	62.725950
411.000000	62.667687
409.500000	62.591224
408.000000	62.488862
406.500000	62.377008
405.000000	62.181559
403.500000	62.121846
402.000000	62.013404
400.500000	61.918449
399.000000	61.735878
397.500000	61.660194
396.000000	61.544209
394.500000	61.425839
393.000000	61.346753
391.500000	61.160593
390.000000	60.993234
388.500000	60.999775
387.000000	60.702378
385.500000	60.593042
384.000000	60.312650
382.500000	60.149469
381.000000	59.972184
379.500000	59.687343
378.000000	59.669892
376.500000	60.065792
375.000000	60.255293
373.500000	59.575709
372.000000	58.687609
370.500000	57.790025
369.000000	56.930822
367.500000	55.697509
366.000000	54.471710
364.500000	52.943742
363.000000	51.097837
361.500000	49.009894
360.000000	46.412632
358.500000	43.390358
357.000000	39.853287
355.500000	35.994391
354.000000	31.548803
352.500000	26.953047
351.000000	22.136349
349.500000	17.411471
348.000000	12.961068
346.500000	9.061521
345.000000	5.815405
343.500000	3.388476
342.000000	1.754919
340.500000	0.782030
339.000000	0.275306
337.500000	0.046469
336.000000	-0.015881
334.500000	-0.022953
333.000000	-0.023643
331.500000	-0.027122
330.000000	-0.025086
328.500000	-0.021616
327.000000	-0.026205
325.500000	-0.026813
324.000000	-0.026354
322.500000	-0.015874
321.000000	-0.024601
319.500000	-0.019853
318.000000	0.004708
316.500000	-0.020783
315.000000	-0.024271
313.500000	-0.027980
312.000000	-0.027687
310.500000	-0.021879
309.000000	-0.019258
307.500000	-0.012391
306.000000	-0.006157
304.500000	-0.003231
303.000000	-0.008745
301.500000	-0.012938
300.000000	-0.010851
