PE UV       SUBTECH     SPECTRUM    ASCII       PEDS        4.00        
   -1
Sample110.Sample.Raw.asc
20/12/17
15:24:59.00
20/12/17
15:24:59.00
Administrator

300.000000
1
Lambda 850
850L1710193
PerkinElmer UV WinLab 6.4.0.973 / 2.02.06 Lambda 800 UV/VIS, Jan 28 2016 16:58:34

0
0
2
0
0
UV/VIS
1
1
1
RBeamAtt,SBeamAtt,60mm sphere
0
0
0
0
Fix
 
0
0.2
0
0
0
 
 
 
0
 
0
319.2
0
Front
100
 
S:100 R:100
 
0
0
0
 
0
 
 
 
0
 
 
0
0
0
0
0
 
 
 
 
0
0


0
0
#HDR
-1
-1
#GR
nm
%T
1.0
0.0
750.000000
-1.500000
301
8
73.871339
-0.033498
#DATA
750.000000	73.625477
748.500000	73.816527
747.000000	73.805709
745.500000	73.871339
744.000000	73.841167
742.500000	73.787895
741.000000	73.771074
739.500000	73.772231
738.000000	73.737062
736.500000	73.643353
735.000000	73.772398
733.500000	73.726164
732.000000	73.862375
730.500000	73.667019
729.000000	73.741047
727.500000	73.586097
726.000000	73.608751
724.500000	73.673971
723.000000	73.692045
721.500000	73.629695
720.000000	73.670295
718.500000	73.597658
717.000000	73.639841
715.500000	73.523070
714.000000	73.508921
712.500000	73.563523
711.000000	73.590640
709.500000	73.536283
708.000000	73.588222
706.500000	73.595929
705.000000	73.545800
703.500000	73.497448
702.000000	73.555203
700.500000	73.496759
699.000000	73.402949
697.500000	73.483276
696.000000	73.359156
694.500000	73.336147
693.000000	73.356078
691.500000	73.278636
690.000000	73.180784
688.500000	73.292739
687.000000	73.368993
685.500000	73.419406
684.000000	73.343155
682.500000	73.350560
681.000000	73.231347
679.500000	73.204265
678.000000	73.305643
676.500000	73.325574
675.000000	73.304952
673.500000	73.188206
672.000000	73.219456
670.500000	73.194994
669.000000	73.190270
667.500000	73.211553
666.000000	73.252811
664.500000	73.185957
663.000000	73.150375
661.500000	73.162124
660.000000	73.070036
658.500000	73.044213
657.000000	73.117986
655.500000	73.072232
654.000000	73.040231
652.500000	73.059571
651.000000	73.007030
649.500000	72.973762
648.000000	72.921858
646.500000	72.909686
645.000000	72.975212
643.500000	72.949547
642.000000	72.930838
640.500000	72.910299
639.000000	72.839978
637.500000	72.833705
636.000000	72.853766
634.500000	72.837227
633.000000	72.773962
631.500000	72.775873
630.000000	72.771891
628.500000	72.777012
627.000000	72.756191
625.500000	72.700706
624.000000	72.688565
622.500000	72.681459
621.000000	72.679965
619.500000	72.657775
618.000000	72.581598
616.500000	72.558906
615.000000	72.563800
613.500000	72.544390
612.000000	72.480193
610.500000	72.478997
609.000000	72.498439
607.500000	72.494116
606.000000	72.439766
604.500000	72.402572
603.000000	72.418742
601.500000	72.402786
600.000000	72.405071
598.500000	72.399225
597.000000	72.329027
595.500000	72.284442
594.000000	72.281079
592.500000	72.254642
591.000000	72.229595
589.500000	72.211954
588.000000	72.147091
586.500000	72.118573
585.000000	72.085061
583.500000	72.059936
582.000000	72.063657
580.500000	72.038549
579.000000	71.994197
577.500000	71.963688
576.000000	71.970496
574.500000	71.967940
573.000000	71.903126
571.500000	71.872714
570.000000	71.858843
568.500000	71.833456
567.000000	71.794451
565.500000	71.731518
564.000000	71.652114
562.500000	71.671411
561.000000	71.822864
559.500000	71.911401
558.000000	71.916045
556.500000	71.880773
555.000000	71.831332
553.500000	71.804161
552.000000	71.823348
550.500000	71.805708
549.000000	71.732583
547.500000	71.708393
546.000000	71.717979
544.500000	71.700579
543.000000	71.649996
541.500000	71.622772
540.000000	71.630427
538.500000	71.638676
537.000000	71.636883
535.500000	71.609652
534.000000	71.571933
532.500000	71.562174
531.000000	71.529794
529.500000	71.522311
528.000000	71.499517
526.500000	71.464325
525.000000	71.437688
523.500000	71.394527
522.000000	71.340712
520.500000	71.246246
519.000000	71.120797
517.500000	71.003930
516.000000	70.860963
514.500000	70.683534
513.000000	70.450733
511.500000	70.208649
510.000000	69.977012
508.500000	69.750905
507.000000	69.551251
505.500000	69.376151
504.000000	69.230591
502.500000	69.199737
501.000000	69.193916
499.500000	69.159224
498.000000	69.212826
496.500000	69.342813
495.000000	69.473077
493.500000	69.616394
492.000000	69.705952
490.500000	69.859061
489.000000	70.020394
487.500000	70.144014
486.000000	70.266534
484.500000	70.518523
483.000000	70.790882
481.500000	71.041391
480.000000	71.109669
478.500000	70.854065
477.000000	70.601305
475.500000	70.457143
474.000000	70.289868
472.500000	70.139804
471.000000	69.989175
469.500000	69.801978
468.000000	69.550942
466.500000	69.293082
465.000000	68.992764
463.500000	68.742797
462.000000	68.554442
460.500000	68.445657
459.000000	68.325038
457.500000	68.263138
456.000000	68.274867
454.500000	68.245895
453.000000	68.287332
451.500000	68.257017
450.000000	68.319653
448.500000	68.325265
447.000000	68.346061
445.500000	68.380091
444.000000	68.602792
442.500000	68.760354
441.000000	68.614479
439.500000	68.594785
438.000000	68.471148
436.500000	68.382738
435.000000	68.310418
433.500000	68.225612
432.000000	68.159176
430.500000	68.135489
429.000000	68.005975
427.500000	67.901799
426.000000	67.854074
424.500000	67.756625
423.000000	67.668262
421.500000	67.605316
420.000000	67.507425
418.500000	67.332587
417.000000	67.381660
415.500000	67.224923
414.000000	67.131457
412.500000	66.984639
411.000000	66.895124
409.500000	66.720765
408.000000	66.675763
406.500000	66.522548
405.000000	66.405088
403.500000	66.306944
402.000000	66.171169
400.500000	65.987835
399.000000	65.925468
397.500000	65.704627
396.000000	65.519122
394.500000	65.331879
393.000000	65.171090
391.500000	64.980690
390.000000	64.736191
388.500000	64.524668
387.000000	64.229720
385.500000	63.899271
384.000000	63.660981
382.500000	63.359240
381.000000	62.931539
379.500000	62.544989
378.000000	62.177356
376.500000	62.494177
375.000000	62.338552
373.500000	61.212990
372.000000	59.979627
370.500000	58.484052
369.000000	57.183698
367.500000	55.377918
366.000000	53.138169
364.500000	50.820822
363.000000	47.920305
361.500000	44.718037
360.000000	40.915476
358.500000	36.733797
357.000000	32.029082
355.500000	27.076481
354.000000	21.961226
352.500000	17.062772
351.000000	12.556774
349.500000	8.683052
348.000000	5.671544
346.500000	3.472391
345.000000	1.968103
343.500000	1.055173
342.000000	0.509586
340.500000	0.238229
339.000000	0.088432
337.500000	0.039802
336.000000	0.022973
334.500000	0.031750
333.000000	0.020935
331.500000	0.028388
330.000000	0.022998
328.500000	0.036959
327.000000	0.035107
325.500000	0.036943
324.000000	0.034892
322.500000	0.030935
321.000000	0.032728
319.500000	0.039880
318.000000	0.006202
316.500000	-0.023828
315.000000	-0.033498
313.500000	-0.027794
312.000000	-0.029239
310.500000	-0.026055
309.000000	-0.020559
307.500000	-0.020711
306.000000	-0.005115
304.500000	-0.010614
303.000000	-0.010914
301.500000	-0.013866
300.000000	-0.012652
