PE UV       SUBTECH     SPECTRUM    ASCII       PEDS        4.00        
   -1
Sample44.Sample.Raw.asc
20/12/15
15:19:24.00
20/12/15
15:19:24.00
Administrator

300.000000
1
Lambda 850
850L1710193
PerkinElmer UV WinLab 6.4.0.973 / 2.02.06 Lambda 800 UV/VIS, Jan 28 2016 16:58:34

0
0
2
0
0
UV/VIS
1
1
1
RBeamAtt,SBeamAtt,60mm sphere
0
0
0
0
Fix
 
0
0.2
0
0
0
 
 
 
0
 
0
319.2
0
Front
100
 
S:100 R:100
 
0
0
0
 
0
 
 
 
0
 
 
0
0
0
0
0
 
 
 
 
0
0


0
0
#HDR
-1
-1
#GR
nm
%T
1.0
0.0
750.000000
-1.500000
301
8
75.729914
-0.031809
#DATA
750.000000	75.078063
748.500000	75.422577
747.000000	75.572127
745.500000	75.694872
744.000000	75.729914
742.500000	75.506562
741.000000	75.466530
739.500000	75.515889
738.000000	75.642146
736.500000	75.520038
735.000000	75.568078
733.500000	75.396982
732.000000	75.582505
730.500000	75.533858
729.000000	75.522375
727.500000	75.336837
726.000000	75.388627
724.500000	75.592174
723.000000	75.433192
721.500000	75.294951
720.000000	75.310877
718.500000	75.390869
717.000000	75.350874
715.500000	75.266140
714.000000	75.315610
712.500000	75.253050
711.000000	75.376999
709.500000	75.300839
708.000000	75.255124
706.500000	75.231360
705.000000	75.273228
703.500000	75.282822
702.000000	75.204382
700.500000	75.179600
699.000000	75.252779
697.500000	75.025972
696.000000	75.072232
694.500000	75.103546
693.000000	75.091944
691.500000	75.023319
690.000000	74.928854
688.500000	75.113664
687.000000	75.160054
685.500000	75.143717
684.000000	75.064045
682.500000	75.054796
681.000000	75.088271
679.500000	75.035564
678.000000	75.023225
676.500000	75.008132
675.000000	75.049555
673.500000	74.941745
672.000000	74.985999
670.500000	74.983798
669.000000	74.906369
667.500000	74.990434
666.000000	74.920549
664.500000	74.910707
663.000000	74.984636
661.500000	74.938243
660.000000	74.862039
658.500000	74.843350
657.000000	74.819179
655.500000	74.819642
654.000000	74.824996
652.500000	74.786654
651.000000	74.753844
649.500000	74.787344
648.000000	74.805091
646.500000	74.777972
645.000000	74.707033
643.500000	74.753253
642.000000	74.710998
640.500000	74.674966
639.000000	74.721295
637.500000	74.652943
636.000000	74.657952
634.500000	74.638810
633.000000	74.651134
631.500000	74.631489
630.000000	74.596893
628.500000	74.592383
627.000000	74.566737
625.500000	74.562583
624.000000	74.592922
622.500000	74.523568
621.000000	74.515961
619.500000	74.540711
618.000000	74.522036
616.500000	74.468578
615.000000	74.438074
613.500000	74.413133
612.000000	74.362198
610.500000	74.370426
609.000000	74.366023
607.500000	74.309185
606.000000	74.312688
604.500000	74.313992
603.000000	74.288303
601.500000	74.308160
600.000000	74.270754
598.500000	74.271761
597.000000	74.269337
595.500000	74.249021
594.000000	74.261201
592.500000	74.233279
591.000000	74.166176
589.500000	74.176463
588.000000	74.142733
586.500000	74.122615
585.000000	74.133385
583.500000	74.093480
582.000000	74.070370
580.500000	74.081439
579.000000	74.074658
577.500000	74.049699
576.000000	74.036755
574.500000	74.036603
573.000000	74.049601
571.500000	74.012877
570.000000	73.966711
568.500000	73.928490
567.000000	73.891569
565.500000	73.868817
564.000000	73.795707
562.500000	73.791019
561.000000	73.930909
559.500000	74.047064
558.000000	74.046216
556.500000	74.034538
555.000000	74.003075
553.500000	74.002186
552.000000	74.038908
550.500000	74.036904
549.000000	73.990248
547.500000	73.980928
546.000000	73.997571
544.500000	74.003243
543.000000	73.994131
541.500000	73.994864
540.000000	74.012894
538.500000	74.019551
537.000000	74.022692
535.500000	74.039632
534.000000	74.042296
532.500000	74.056854
531.000000	74.039086
529.500000	74.024035
528.000000	74.031008
526.500000	74.008809
525.000000	73.984134
523.500000	73.965892
522.000000	73.900347
520.500000	73.836058
519.000000	73.733454
517.500000	73.611056
516.000000	73.464148
514.500000	73.292500
513.000000	73.073448
511.500000	72.804050
510.000000	72.551132
508.500000	72.294338
507.000000	72.047062
505.500000	71.854173
504.000000	71.679312
502.500000	71.584566
501.000000	71.543461
499.500000	71.559547
498.000000	71.583398
496.500000	71.591257
495.000000	71.678592
493.500000	71.764716
492.000000	71.885216
490.500000	71.989577
489.000000	72.125298
487.500000	72.308472
486.000000	72.470837
484.500000	72.658820
483.000000	72.991236
481.500000	73.422334
480.000000	73.566742
478.500000	73.394229
477.000000	73.209031
475.500000	73.071562
474.000000	72.976834
472.500000	72.832615
471.000000	72.663508
469.500000	72.505434
468.000000	72.269960
466.500000	72.044745
465.000000	71.757095
463.500000	71.479286
462.000000	71.258761
460.500000	71.151245
459.000000	71.029077
457.500000	70.909847
456.000000	70.844114
454.500000	70.844569
453.000000	70.782846
451.500000	70.768581
450.000000	70.797017
448.500000	70.826140
447.000000	70.742307
445.500000	70.743345
444.000000	71.035884
442.500000	71.196823
441.000000	71.161687
439.500000	71.051363
438.000000	70.952652
436.500000	70.939599
435.000000	70.834766
433.500000	70.749487
432.000000	70.730980
430.500000	70.662312
429.000000	70.574548
427.500000	70.521837
426.000000	70.500167
424.500000	70.431938
423.000000	70.302178
421.500000	70.223193
420.000000	70.173598
418.500000	70.068043
417.000000	70.032272
415.500000	69.945691
414.000000	69.896273
412.500000	69.745556
411.000000	69.715559
409.500000	69.578819
408.000000	69.521406
406.500000	69.387391
405.000000	69.360203
403.500000	69.269238
402.000000	69.163510
400.500000	69.002002
399.000000	68.882019
397.500000	68.795812
396.000000	68.623390
394.500000	68.565056
393.000000	68.493551
391.500000	68.304031
390.000000	68.154118
388.500000	68.055397
387.000000	67.850311
385.500000	67.559530
384.000000	67.431283
382.500000	67.155889
381.000000	66.883692
379.500000	66.647848
378.000000	66.526058
376.500000	67.109811
375.000000	67.264518
373.500000	66.225730
372.000000	65.334162
370.500000	64.230922
369.000000	63.101324
367.500000	61.648150
366.000000	60.142161
364.500000	58.082750
363.000000	55.864016
361.500000	53.080784
360.000000	49.834861
358.500000	46.169415
357.000000	41.796761
355.500000	37.037720
354.000000	31.896281
352.500000	26.442848
351.000000	21.079710
349.500000	15.882532
348.000000	11.331676
346.500000	7.479172
345.000000	4.486016
343.500000	2.410789
342.000000	1.125003
340.500000	0.444687
339.000000	0.166157
337.500000	0.062814
336.000000	0.032413
334.500000	0.043062
333.000000	0.037496
331.500000	0.037036
330.000000	0.041245
328.500000	0.040307
327.000000	0.042622
325.500000	0.041945
324.000000	0.041389
322.500000	0.044373
321.000000	0.034759
319.500000	0.047778
318.000000	-0.008842
316.500000	-0.029769
315.000000	-0.031184
313.500000	-0.028396
312.000000	-0.031809
310.500000	-0.029096
309.000000	-0.026410
307.500000	-0.020137
306.000000	-0.016584
304.500000	-0.013185
303.000000	-0.011603
301.500000	-0.013601
300.000000	-0.009225
