PE UV       SUBTECH     SPECTRUM    ASCII       PEDS        4.00        
   -1
Sample45.Sample.Raw.asc
20/12/15
15:22:38.00
20/12/15
15:22:38.00
Administrator

300.000000
1
Lambda 850
850L1710193
PerkinElmer UV WinLab 6.4.0.973 / 2.02.06 Lambda 800 UV/VIS, Jan 28 2016 16:58:34

0
0
2
0
0
UV/VIS
1
1
1
RBeamAtt,SBeamAtt,60mm sphere
0
0
0
0
Fix
 
0
0.2
0
0
0
 
 
 
0
 
0
319.2
0
Front
100
 
S:100 R:100
 
0
0
0
 
0
 
 
 
0
 
 
0
0
0
0
0
 
 
 
 
0
0


0
0
#HDR
-1
-1
#GR
nm
%T
1.0
0.0
750.000000
-1.500000
301
8
74.374469
-0.045931
#DATA
750.000000	73.848887
748.500000	74.306290
747.000000	74.353665
745.500000	74.311587
744.000000	74.374469
742.500000	74.352573
741.000000	74.220161
739.500000	74.230044
738.000000	74.316738
736.500000	74.266219
735.000000	74.282162
733.500000	74.331454
732.000000	74.272426
730.500000	74.317213
729.000000	74.270215
727.500000	74.166809
726.000000	74.134123
724.500000	74.242046
723.000000	74.078650
721.500000	74.053488
720.000000	74.144657
718.500000	74.201925
717.000000	74.007181
715.500000	74.046828
714.000000	74.065619
712.500000	74.074833
711.000000	74.240337
709.500000	73.978101
708.000000	74.069471
706.500000	74.081833
705.000000	74.120623
703.500000	74.111168
702.000000	73.986895
700.500000	73.958377
699.000000	73.992334
697.500000	73.898217
696.000000	73.949583
694.500000	73.871361
693.000000	73.845945
691.500000	73.925963
690.000000	73.727340
688.500000	73.937955
687.000000	73.924859
685.500000	73.946498
684.000000	73.952951
682.500000	73.840941
681.000000	73.904881
679.500000	73.832527
678.000000	73.885589
676.500000	73.882055
675.000000	73.822105
673.500000	73.740918
672.000000	73.753039
670.500000	73.771369
669.000000	73.800689
667.500000	73.783917
666.000000	73.745018
664.500000	73.811693
663.000000	73.748981
661.500000	73.749196
660.000000	73.704984
658.500000	73.641051
657.000000	73.668676
655.500000	73.632837
654.000000	73.622399
652.500000	73.620901
651.000000	73.618297
649.500000	73.597424
648.000000	73.562772
646.500000	73.571611
645.000000	73.501537
643.500000	73.523179
642.000000	73.586351
640.500000	73.535260
639.000000	73.532401
637.500000	73.493084
636.000000	73.450815
634.500000	73.444380
633.000000	73.454176
631.500000	73.455251
630.000000	73.381355
628.500000	73.388440
627.000000	73.376496
625.500000	73.380840
624.000000	73.374428
622.500000	73.335278
621.000000	73.340322
619.500000	73.332954
618.000000	73.289728
616.500000	73.269241
615.000000	73.280088
613.500000	73.272138
612.000000	73.225315
610.500000	73.198288
609.000000	73.178119
607.500000	73.114874
606.000000	73.078581
604.500000	73.023942
603.000000	73.044802
601.500000	73.057244
600.000000	73.023870
598.500000	73.018010
597.000000	73.055493
595.500000	73.018638
594.000000	72.986541
592.500000	72.985464
591.000000	72.932537
589.500000	72.900275
588.000000	72.880162
586.500000	72.859790
585.000000	72.890523
583.500000	72.854197
582.000000	72.812820
580.500000	72.767577
579.000000	72.761570
577.500000	72.748384
576.000000	72.695931
574.500000	72.701323
573.000000	72.735490
571.500000	72.690412
570.000000	72.599913
568.500000	72.581542
567.000000	72.534363
565.500000	72.479535
564.000000	72.397686
562.500000	72.399529
561.000000	72.539434
559.500000	72.633342
558.000000	72.635566
556.500000	72.626417
555.000000	72.602284
553.500000	72.589190
552.000000	72.573140
550.500000	72.567348
549.000000	72.535353
547.500000	72.501207
546.000000	72.501534
544.500000	72.474523
543.000000	72.407440
541.500000	72.384598
540.000000	72.387441
538.500000	72.397939
537.000000	72.404527
535.500000	72.362541
534.000000	72.326681
532.500000	72.328004
531.000000	72.301200
529.500000	72.290526
528.000000	72.238754
526.500000	72.195065
525.000000	72.166911
523.500000	72.110182
522.000000	72.065781
520.500000	71.991544
519.000000	71.890041
517.500000	71.763922
516.000000	71.585771
514.500000	71.398397
513.000000	71.188645
511.500000	70.959127
510.000000	70.719512
508.500000	70.487083
507.000000	70.275341
505.500000	70.110082
504.000000	69.986522
502.500000	69.909229
501.000000	69.879267
499.500000	69.959772
498.000000	70.105227
496.500000	70.157974
495.000000	70.257263
493.500000	70.420660
492.000000	70.583794
490.500000	70.729069
489.000000	70.839900
487.500000	70.976805
486.000000	71.125262
484.500000	71.310604
483.000000	71.568493
481.500000	71.882340
480.000000	71.944914
478.500000	71.668054
477.000000	71.403284
475.500000	71.224789
474.000000	71.068280
472.500000	70.925022
471.000000	70.753010
469.500000	70.538932
468.000000	70.269874
466.500000	70.061795
465.000000	69.780669
463.500000	69.514644
462.000000	69.312321
460.500000	69.210043
459.000000	69.084202
457.500000	69.015549
456.000000	69.001130
454.500000	69.054979
453.000000	69.013856
451.500000	69.065531
450.000000	69.111738
448.500000	69.129865
447.000000	69.123487
445.500000	69.161028
444.000000	69.486442
442.500000	69.609488
441.000000	69.554036
439.500000	69.441179
438.000000	69.308388
436.500000	69.258117
435.000000	69.158914
433.500000	69.102920
432.000000	69.056995
430.500000	68.986272
429.000000	68.939351
427.500000	68.836444
426.000000	68.748972
424.500000	68.705284
423.000000	68.654297
421.500000	68.490550
420.000000	68.460791
418.500000	68.348774
417.000000	68.319489
415.500000	68.129462
414.000000	68.069336
412.500000	67.915722
411.000000	67.890287
409.500000	67.777704
408.000000	67.699499
406.500000	67.540535
405.000000	67.422719
403.500000	67.351799
402.000000	67.177820
400.500000	67.056422
399.000000	66.912597
397.500000	66.802269
396.000000	66.595699
394.500000	66.544033
393.000000	66.363013
391.500000	66.225213
390.000000	66.050759
388.500000	65.927487
387.000000	65.620100
385.500000	65.368884
384.000000	65.136986
382.500000	64.825142
381.000000	64.358234
379.500000	64.054677
378.000000	63.812802
376.500000	63.974010
375.000000	64.063713
373.500000	62.853379
372.000000	61.660952
370.500000	60.219431
369.000000	58.604974
367.500000	56.790480
366.000000	54.602439
364.500000	52.039652
363.000000	49.121845
361.500000	45.404853
360.000000	41.302616
358.500000	36.701614
357.000000	31.753386
355.500000	26.400455
354.000000	20.979398
352.500000	15.878463
351.000000	11.358278
349.500000	7.595470
348.000000	4.763171
346.500000	2.804332
345.000000	1.527050
343.500000	0.789357
342.000000	0.358973
340.500000	0.159068
339.000000	0.072057
337.500000	0.045489
336.000000	0.041396
334.500000	0.038422
333.000000	0.044440
331.500000	0.047524
330.000000	0.042450
328.500000	0.043186
327.000000	0.038908
325.500000	0.042782
324.000000	0.046783
322.500000	0.047815
321.000000	0.035784
319.500000	0.045725
318.000000	-0.005644
316.500000	-0.038502
315.000000	-0.045931
313.500000	-0.038269
312.000000	-0.041408
310.500000	-0.030885
309.000000	-0.028296
307.500000	-0.026755
306.000000	-0.016679
304.500000	-0.012332
303.000000	-0.014265
301.500000	-0.018547
300.000000	-0.017784
