PE UV       SUBTECH     SPECTRUM    ASCII       PEDS        4.00        
   -1
Sample244.Sample.Raw.asc
21/02/10
10:48:17.00
21/02/10
10:48:17.00
Administrator

300.000000
1
Lambda 850
850L1710193
PerkinElmer UV WinLab 6.4.0.973 / 2.02.06 Lambda 800 UV/VIS, Jan 28 2016 16:58:34

0
0
2
0
0
UV/VIS
1
1
1
RBeamAtt,SBeamAtt,60mm sphere
0
0
0
0
Fix
 
0
0.2
0
0
0
 
 
 
0
 
0
319.2
0
Front
100
 
S:100 R:100
 
0
0
0
 
0
 
 
 
0
 
 
0
0
0
0
0
 
 
 
 
0
0


0
0
#HDR
-1
-1
#GR
nm
%T
1.0
0.0
750.000000
-1.500000
301
8
69.390221
-0.029569
#DATA
750.000000	69.041812
748.500000	69.390221
747.000000	69.332093
745.500000	69.201145
744.000000	69.326509
742.500000	69.028951
741.000000	69.103462
739.500000	69.031683
738.000000	69.088201
736.500000	68.988781
735.000000	69.121594
733.500000	68.981286
732.000000	68.963601
730.500000	68.924459
729.000000	68.900379
727.500000	68.986235
726.000000	68.915839
724.500000	68.732419
723.000000	68.755127
721.500000	68.770373
720.000000	68.730774
718.500000	68.748669
717.000000	68.738692
715.500000	68.660283
714.000000	68.670897
712.500000	68.616003
711.000000	68.631670
709.500000	68.502473
708.000000	68.358470
706.500000	68.564498
705.000000	68.522454
703.500000	68.467556
702.000000	68.359474
700.500000	68.431544
699.000000	68.366564
697.500000	68.334179
696.000000	68.356334
694.500000	68.412248
693.000000	68.357830
691.500000	68.155923
690.000000	68.029567
688.500000	68.196778
687.000000	68.098631
685.500000	68.055508
684.000000	68.094232
682.500000	68.033063
681.000000	68.025135
679.500000	67.951508
678.000000	67.818859
676.500000	67.783319
675.000000	67.722800
673.500000	67.734727
672.000000	67.646717
670.500000	67.588857
669.000000	67.522982
667.500000	67.433462
666.000000	67.389673
664.500000	67.370901
663.000000	67.274568
661.500000	67.115103
660.000000	67.089216
658.500000	67.021976
657.000000	66.898672
655.500000	66.805062
654.000000	66.706912
652.500000	66.680418
651.000000	66.583407
649.500000	66.499735
648.000000	66.384272
646.500000	66.284730
645.000000	66.208871
643.500000	66.106993
642.000000	65.991996
640.500000	65.894379
639.000000	65.819346
637.500000	65.737516
636.000000	65.580025
634.500000	65.484525
633.000000	65.352580
631.500000	65.201045
630.000000	65.138780
628.500000	65.045642
627.000000	64.918425
625.500000	64.838931
624.000000	64.762812
622.500000	64.642675
621.000000	64.479639
619.500000	64.339299
618.000000	64.186186
616.500000	64.092991
615.000000	63.994802
613.500000	63.902303
612.000000	63.768004
610.500000	63.625383
609.000000	63.511336
607.500000	63.379375
606.000000	63.268639
604.500000	63.167872
603.000000	63.055756
601.500000	62.866970
600.000000	62.722113
598.500000	62.598856
597.000000	62.494688
595.500000	62.377186
594.000000	62.245784
592.500000	62.111591
591.000000	61.985678
589.500000	61.850375
588.000000	61.747651
586.500000	61.616268
585.000000	61.443375
583.500000	61.340010
582.000000	61.215703
580.500000	61.076623
579.000000	60.986402
577.500000	60.844966
576.000000	60.722026
574.500000	60.605995
573.000000	60.448097
571.500000	60.320408
570.000000	60.216042
568.500000	60.077235
567.000000	59.932660
565.500000	59.819013
564.000000	59.681436
562.500000	59.566934
561.000000	59.560434
559.500000	59.537077
558.000000	59.469470
556.500000	59.346548
555.000000	59.202147
553.500000	59.109059
552.000000	59.002600
550.500000	58.895204
549.000000	58.792106
547.500000	58.678740
546.000000	58.594499
544.500000	58.471060
543.000000	58.353936
541.500000	58.281303
540.000000	58.186712
538.500000	58.083364
537.000000	57.980628
535.500000	57.875813
534.000000	57.786876
532.500000	57.697772
531.000000	57.608830
529.500000	57.513933
528.000000	57.430271
526.500000	57.332604
525.000000	57.211293
523.500000	57.101097
522.000000	56.995485
520.500000	56.862909
519.000000	56.709250
517.500000	56.576332
516.000000	56.417317
514.500000	56.207261
513.000000	56.015173
511.500000	55.796573
510.000000	55.614931
508.500000	55.427953
507.000000	55.252513
505.500000	55.136305
504.000000	55.060672
502.500000	55.060666
501.000000	55.136461
499.500000	55.209520
498.000000	55.299050
496.500000	55.430627
495.000000	55.611198
493.500000	55.778953
492.000000	55.960127
490.500000	56.092987
489.000000	56.187618
487.500000	56.262834
486.000000	56.369384
484.500000	56.403554
483.000000	56.587701
481.500000	56.729044
480.000000	56.638896
478.500000	56.351422
477.000000	56.065656
475.500000	55.887844
474.000000	55.738245
472.500000	55.554234
471.000000	55.378338
469.500000	55.222187
468.000000	55.014564
466.500000	54.825117
465.000000	54.611833
463.500000	54.465653
462.000000	54.375379
460.500000	54.294470
459.000000	54.262693
457.500000	54.250164
456.000000	54.297039
454.500000	54.307700
453.000000	54.364972
451.500000	54.409917
450.000000	54.498604
448.500000	54.556857
447.000000	54.544250
445.500000	54.689366
444.000000	54.873027
442.500000	54.912897
441.000000	54.846405
439.500000	54.733805
438.000000	54.621818
436.500000	54.583843
435.000000	54.554286
433.500000	54.458652
432.000000	54.420759
430.500000	54.335518
429.000000	54.329010
427.500000	54.281773
426.000000	54.176775
424.500000	54.168553
423.000000	54.072405
421.500000	53.998880
420.000000	53.879497
418.500000	53.864964
417.000000	53.759917
415.500000	53.699204
414.000000	53.582552
412.500000	53.595050
411.000000	53.492378
409.500000	53.393105
408.000000	53.319488
406.500000	53.215196
405.000000	53.213262
403.500000	53.136491
402.000000	53.016239
400.500000	52.954271
399.000000	52.921951
397.500000	52.833330
396.000000	52.744432
394.500000	52.672552
393.000000	52.514350
391.500000	52.485453
390.000000	52.401168
388.500000	52.243842
387.000000	52.130866
385.500000	51.996059
384.000000	51.882442
382.500000	51.639750
381.000000	51.526624
379.500000	51.281376
378.000000	51.141298
376.500000	51.530283
375.000000	51.578726
373.500000	50.850883
372.000000	50.034535
370.500000	49.095397
369.000000	48.064896
367.500000	46.897129
366.000000	45.486621
364.500000	43.637334
363.000000	41.684626
361.500000	39.088085
360.000000	36.216181
358.500000	32.799142
357.000000	29.029505
355.500000	24.863201
354.000000	20.507982
352.500000	16.103425
351.000000	12.050653
349.500000	8.487758
348.000000	5.629573
346.500000	3.466663
345.000000	2.002165
343.500000	1.075851
342.000000	0.537344
340.500000	0.244630
339.000000	0.115258
337.500000	0.062288
336.000000	0.038237
334.500000	0.041899
333.000000	0.045479
331.500000	0.043951
330.000000	0.052066
328.500000	0.045087
327.000000	0.045185
325.500000	0.045856
324.000000	0.052868
322.500000	0.048998
321.000000	0.051758
319.500000	0.036782
318.000000	-0.001795
316.500000	-0.024245
315.000000	-0.028827
313.500000	-0.028475
312.000000	-0.029569
310.500000	-0.025745
309.000000	-0.026905
307.500000	-0.018893
306.000000	-0.010936
304.500000	-0.004860
303.000000	-0.009057
301.500000	-0.009835
300.000000	-0.012322
