PE UV       SUBTECH     SPECTRUM    ASCII       PEDS        4.00        
   -1
Sample9.Sample.Raw.asc
21/03/26
11:52:39.00
21/03/26
11:52:39.00
Administrator

300.000000
1
Lambda 850
850L1710193
PerkinElmer UV WinLab 6.4.0.973 / 2.02.06 Lambda 800 UV/VIS, Jan 28 2016 16:58:34

0
0
2
0
0
UV/VIS
1
1
1
RBeamAtt,SBeamAtt,60mm sphere
0
0
0
0
Fix
 
0
0.2
0
0
0
 
 
 
0
 
0
340
0
Front
100
 
S:100 R:100
 
0
0
0
 
0
 
 
 
0
 
 
0
0
0
0
0
 
 
 
 
0
0


0
0
#HDR
-1
-1
#GR
nm
%T
1.0
0.0
750.000000
-1.500000
301
8
74.189223
-0.043504
#DATA
750.000000	73.923373
748.500000	74.132635
747.000000	73.991060
745.500000	74.094757
744.000000	74.020393
742.500000	74.051357
741.000000	74.189223
739.500000	74.138853
738.000000	74.132951
736.500000	73.979960
735.000000	74.106000
733.500000	74.074932
732.000000	74.006426
730.500000	73.981834
729.000000	73.986889
727.500000	74.048172
726.000000	74.094346
724.500000	73.893835
723.000000	73.913435
721.500000	73.995503
720.000000	73.940488
718.500000	74.040615
717.000000	73.934024
715.500000	73.915841
714.000000	73.991215
712.500000	73.930260
711.000000	73.917450
709.500000	73.873423
708.000000	73.819706
706.500000	73.899248
705.000000	73.881613
703.500000	73.862452
702.000000	73.868277
700.500000	73.838752
699.000000	73.790822
697.500000	73.876904
696.000000	73.770802
694.500000	73.775740
693.000000	73.733191
691.500000	73.700165
690.000000	73.460552
688.500000	73.610933
687.000000	73.725165
685.500000	73.702280
684.000000	73.702396
682.500000	73.717227
681.000000	73.709612
679.500000	73.693345
678.000000	73.588006
676.500000	73.607242
675.000000	73.616745
673.500000	73.651237
672.000000	73.609257
670.500000	73.663130
669.000000	73.580068
667.500000	73.567407
666.000000	73.577492
664.500000	73.554494
663.000000	73.515854
661.500000	73.495512
660.000000	73.505342
658.500000	73.431754
657.000000	73.515652
655.500000	73.470834
654.000000	73.460449
652.500000	73.454735
651.000000	73.384120
649.500000	73.344097
648.000000	73.389674
646.500000	73.381020
645.000000	73.352717
643.500000	73.399217
642.000000	73.304062
640.500000	73.253722
639.000000	73.282174
637.500000	73.277741
636.000000	73.291322
634.500000	73.300390
633.000000	73.247209
631.500000	73.178712
630.000000	73.186866
628.500000	73.203341
627.000000	73.167471
625.500000	73.119048
624.000000	73.161967
622.500000	73.171735
621.000000	73.145555
619.500000	73.132895
618.000000	73.048550
616.500000	73.002218
615.000000	73.013849
613.500000	72.927670
612.000000	72.916167
610.500000	72.975619
609.000000	72.950079
607.500000	72.889340
606.000000	72.847022
604.500000	72.885864
603.000000	72.872509
601.500000	72.826762
600.000000	72.812144
598.500000	72.795194
597.000000	72.775873
595.500000	72.776585
594.000000	72.715336
592.500000	72.683745
591.000000	72.697203
589.500000	72.677718
588.000000	72.659051
586.500000	72.628308
585.000000	72.614552
583.500000	72.618703
582.000000	72.574190
580.500000	72.533056
579.000000	72.505878
577.500000	72.501925
576.000000	72.482621
574.500000	72.452508
573.000000	72.434486
571.500000	72.373196
570.000000	72.308154
568.500000	72.290745
567.000000	72.298384
565.500000	72.247088
564.000000	72.157748
562.500000	72.161065
561.000000	72.338349
559.500000	72.444831
558.000000	72.408195
556.500000	72.377543
555.000000	72.363514
553.500000	72.324508
552.000000	72.298375
550.500000	72.293358
549.000000	72.238053
547.500000	72.215168
546.000000	72.215442
544.500000	72.195540
543.000000	72.174178
541.500000	72.158370
540.000000	72.156095
538.500000	72.119922
537.000000	72.097121
535.500000	72.101714
534.000000	72.100961
532.500000	72.099346
531.000000	72.066283
529.500000	72.066976
528.000000	72.025506
526.500000	71.965036
525.000000	71.917004
523.500000	71.850339
522.000000	71.808137
520.500000	71.707064
519.000000	71.609920
517.500000	71.502436
516.000000	71.334502
514.500000	71.147929
513.000000	70.917271
511.500000	70.680380
510.000000	70.431507
508.500000	70.220670
507.000000	70.002610
505.500000	69.825439
504.000000	69.735494
502.500000	69.621099
501.000000	69.627021
499.500000	69.683711
498.000000	69.777267
496.500000	69.878754
495.000000	69.975230
493.500000	70.120663
492.000000	70.262835
490.500000	70.424213
489.000000	70.522942
487.500000	70.672251
486.000000	70.801170
484.500000	70.981531
483.000000	71.233286
481.500000	71.570272
480.000000	71.618307
478.500000	71.323710
477.000000	71.045526
475.500000	70.861061
474.000000	70.694698
472.500000	70.593796
471.000000	70.416527
469.500000	70.184631
468.000000	69.948513
466.500000	69.671455
465.000000	69.420323
463.500000	69.224133
462.000000	69.037555
460.500000	68.875055
459.000000	68.776133
457.500000	68.709821
456.000000	68.663367
454.500000	68.672897
453.000000	68.735388
451.500000	68.789283
450.000000	68.798442
448.500000	68.831081
447.000000	68.798453
445.500000	68.821061
444.000000	69.095865
442.500000	69.252569
441.000000	69.142505
439.500000	69.011295
438.000000	68.955212
436.500000	68.847183
435.000000	68.825214
433.500000	68.741401
432.000000	68.715074
430.500000	68.555558
429.000000	68.458430
427.500000	68.436971
426.000000	68.398535
424.500000	68.268945
423.000000	68.227970
421.500000	68.162834
420.000000	68.081880
418.500000	67.960256
417.000000	67.909372
415.500000	67.849976
414.000000	67.715755
412.500000	67.627991
411.000000	67.537969
409.500000	67.590859
408.000000	67.486682
406.500000	67.297876
405.000000	67.190013
403.500000	67.009076
402.000000	66.973382
400.500000	66.857008
399.000000	66.788671
397.500000	66.668397
396.000000	66.472498
394.500000	66.322034
393.000000	66.283669
391.500000	66.091006
390.000000	65.984489
388.500000	65.674690
387.000000	65.553795
385.500000	65.242077
384.000000	65.130627
382.500000	64.732525
381.000000	64.525355
379.500000	64.207455
378.000000	63.892014
376.500000	64.281892
375.000000	64.356983
373.500000	63.089479
372.000000	61.991269
370.500000	60.838768
369.000000	59.445438
367.500000	57.730239
366.000000	55.789297
364.500000	53.321086
363.000000	50.518228
361.500000	47.241685
360.000000	43.554868
358.500000	39.157769
357.000000	34.438686
355.500000	29.169658
354.000000	23.886145
352.500000	18.635227
351.000000	13.791549
349.500000	9.661328
348.000000	6.304600
346.500000	3.879232
345.000000	2.250628
343.500000	1.215408
342.000000	0.613618
340.500000	0.280208
339.000000	0.076664
337.500000	-0.017549
336.000000	-0.025343
334.500000	-0.014488
333.000000	-0.019417
331.500000	-0.010238
330.000000	-0.006892
328.500000	-0.018551
327.000000	-0.011367
325.500000	-0.022301
324.000000	-0.011576
322.500000	-0.003737
321.000000	-0.019431
319.500000	-0.009919
318.000000	-0.007903
316.500000	-0.042195
315.000000	-0.043504
313.500000	-0.043286
312.000000	-0.036713
310.500000	-0.027322
309.000000	-0.033375
307.500000	-0.028000
306.000000	-0.010140
304.500000	0.000855
303.000000	-0.012155
301.500000	-0.016253
300.000000	-0.011707
