PE UV       SUBTECH     SPECTRUM    ASCII       PEDS        4.00        
   -1
Sample55.Sample.Raw.asc
20/12/15
16:06:08.00
20/12/15
16:06:08.00
Administrator

300.000000
1
Lambda 850
850L1710193
PerkinElmer UV WinLab 6.4.0.973 / 2.02.06 Lambda 800 UV/VIS, Jan 28 2016 16:58:34

0
0
2
0
0
UV/VIS
1
1
1
RBeamAtt,SBeamAtt,60mm sphere
0
0
0
0
Fix
 
0
0.2
0
0
0
 
 
 
0
 
0
319.2
0
Front
100
 
S:100 R:100
 
0
0
0
 
0
 
 
 
0
 
 
0
0
0
0
0
 
 
 
 
0
0


0
0
#HDR
-1
-1
#GR
nm
%T
1.0
0.0
750.000000
-1.500000
301
8
74.335093
-0.028960
#DATA
750.000000	73.824806
748.500000	74.252289
747.000000	74.285749
745.500000	74.214147
744.000000	74.335093
742.500000	74.312741
741.000000	74.142783
739.500000	74.098810
738.000000	74.232079
736.500000	74.065421
735.000000	74.192791
733.500000	74.178241
732.000000	73.996948
730.500000	74.128528
729.000000	74.118811
727.500000	74.003261
726.000000	74.083771
724.500000	74.216942
723.000000	74.029567
721.500000	74.049431
720.000000	73.978147
718.500000	73.950693
717.000000	73.938034
715.500000	73.959375
714.000000	74.042188
712.500000	73.862820
711.000000	74.074313
709.500000	73.851231
708.000000	73.929317
706.500000	73.920572
705.000000	73.932409
703.500000	73.909831
702.000000	73.849335
700.500000	73.824171
699.000000	73.862526
697.500000	73.743364
696.000000	73.868595
694.500000	73.742740
693.000000	73.761959
691.500000	73.726340
690.000000	73.518679
688.500000	73.800993
687.000000	73.792660
685.500000	73.827055
684.000000	73.846762
682.500000	73.724965
681.000000	73.763042
679.500000	73.760661
678.000000	73.696844
676.500000	73.671735
675.000000	73.670447
673.500000	73.563940
672.000000	73.628898
670.500000	73.636499
669.000000	73.634471
667.500000	73.692283
666.000000	73.587225
664.500000	73.595846
663.000000	73.620486
661.500000	73.573887
660.000000	73.506695
658.500000	73.482759
657.000000	73.497936
655.500000	73.479465
654.000000	73.481082
652.500000	73.438261
651.000000	73.476086
649.500000	73.488464
648.000000	73.430612
646.500000	73.422811
645.000000	73.360531
643.500000	73.393698
642.000000	73.401983
640.500000	73.314773
639.000000	73.294376
637.500000	73.277636
636.000000	73.238406
634.500000	73.279498
633.000000	73.255095
631.500000	73.247461
630.000000	73.179040
628.500000	73.222098
627.000000	73.213216
625.500000	73.189857
624.000000	73.198579
622.500000	73.151323
621.000000	73.107007
619.500000	73.132005
618.000000	73.091461
616.500000	73.070602
615.000000	73.057973
613.500000	73.008908
612.000000	72.980690
610.500000	72.982204
609.000000	72.960449
607.500000	72.925495
606.000000	72.901421
604.500000	72.849540
603.000000	72.866558
601.500000	72.855068
600.000000	72.836846
598.500000	72.825761
597.000000	72.798973
595.500000	72.770003
594.000000	72.799035
592.500000	72.743493
591.000000	72.654774
589.500000	72.692431
588.000000	72.703684
586.500000	72.649910
585.000000	72.653323
583.500000	72.638475
582.000000	72.626250
580.500000	72.594794
579.000000	72.541333
577.500000	72.536050
576.000000	72.507049
574.500000	72.471996
573.000000	72.457397
571.500000	72.424945
570.000000	72.388506
568.500000	72.381472
567.000000	72.309262
565.500000	72.258985
564.000000	72.196579
562.500000	72.190558
561.000000	72.323591
559.500000	72.424861
558.000000	72.381433
556.500000	72.384164
555.000000	72.383648
553.500000	72.344102
552.000000	72.333785
550.500000	72.296553
549.000000	72.250449
547.500000	72.235220
546.000000	72.244997
544.500000	72.241094
543.000000	72.195474
541.500000	72.152698
540.000000	72.137054
538.500000	72.146270
537.000000	72.145534
535.500000	72.121495
534.000000	72.087935
532.500000	72.075767
531.000000	72.064061
529.500000	72.043212
528.000000	72.020593
526.500000	71.985816
525.000000	71.941090
523.500000	71.878889
522.000000	71.818684
520.500000	71.751904
519.000000	71.645211
517.500000	71.506122
516.000000	71.349022
514.500000	71.159095
513.000000	70.945333
511.500000	70.704450
510.000000	70.446070
508.500000	70.229364
507.000000	70.013206
505.500000	69.838509
504.000000	69.707389
502.500000	69.650024
501.000000	69.642163
499.500000	69.727383
498.000000	69.817733
496.500000	69.892450
495.000000	70.012495
493.500000	70.155743
492.000000	70.321518
490.500000	70.476636
489.000000	70.561187
487.500000	70.682543
486.000000	70.853418
484.500000	71.036597
483.000000	71.286863
481.500000	71.618296
480.000000	71.659688
478.500000	71.370763
477.000000	71.113640
475.500000	70.957638
474.000000	70.835802
472.500000	70.687929
471.000000	70.508523
469.500000	70.303903
468.000000	70.028793
466.500000	69.793245
465.000000	69.524142
463.500000	69.286965
462.000000	69.080109
460.500000	68.960893
459.000000	68.845002
457.500000	68.817186
456.000000	68.792730
454.500000	68.805058
453.000000	68.796084
451.500000	68.819381
450.000000	68.847010
448.500000	68.919657
447.000000	68.888314
445.500000	68.911096
444.000000	69.164343
442.500000	69.315581
441.000000	69.202648
439.500000	69.083342
438.000000	69.006103
436.500000	68.992691
435.000000	68.893992
433.500000	68.824049
432.000000	68.780874
430.500000	68.710555
429.000000	68.648264
427.500000	68.614484
426.000000	68.521513
424.500000	68.453011
423.000000	68.304384
421.500000	68.208380
420.000000	68.169303
418.500000	68.046484
417.000000	67.985409
415.500000	67.806681
414.000000	67.785084
412.500000	67.672725
411.000000	67.660987
409.500000	67.458199
408.000000	67.362868
406.500000	67.329694
405.000000	67.169771
403.500000	67.000755
402.000000	66.900274
400.500000	66.728452
399.000000	66.619826
397.500000	66.532119
396.000000	66.374430
394.500000	66.192474
393.000000	66.109865
391.500000	65.856910
390.000000	65.681054
388.500000	65.463735
387.000000	65.269438
385.500000	65.072825
384.000000	64.800770
382.500000	64.472863
381.000000	64.010539
379.500000	63.669006
378.000000	63.551284
376.500000	63.809745
375.000000	63.884431
373.500000	62.681535
372.000000	61.632985
370.500000	60.272513
369.000000	58.748026
367.500000	57.014215
366.000000	55.016466
364.500000	52.580822
363.000000	49.859881
361.500000	46.316430
360.000000	42.580646
358.500000	38.157487
357.000000	33.282808
355.500000	28.081323
354.000000	22.696474
352.500000	17.527236
351.000000	12.812476
349.500000	8.762118
348.000000	5.656956
346.500000	3.430940
345.000000	1.941792
343.500000	1.032350
342.000000	0.510256
340.500000	0.237308
339.000000	0.104751
337.500000	0.057997
336.000000	0.058622
334.500000	0.043062
333.000000	0.051383
331.500000	0.059220
330.000000	0.059967
328.500000	0.058231
327.000000	0.059801
325.500000	0.068637
324.000000	0.070872
322.500000	0.079815
321.000000	0.081074
319.500000	0.067094
318.000000	0.002352
316.500000	-0.025261
315.000000	-0.023670
313.500000	-0.028960
312.000000	-0.028515
310.500000	-0.021281
309.000000	-0.014148
307.500000	-0.007280
306.000000	0.001516
304.500000	0.001613
303.000000	-0.003899
301.500000	-0.005326
300.000000	-0.005040
