PE UV       SUBTECH     SPECTRUM    ASCII       PEDS        4.00        
   -1
Sample58.Sample.Raw.asc
20/12/15
16:20:26.00
20/12/15
16:20:26.00
Administrator

300.000000
1
Lambda 850
850L1710193
PerkinElmer UV WinLab 6.4.0.973 / 2.02.06 Lambda 800 UV/VIS, Jan 28 2016 16:58:34

0
0
2
0
0
UV/VIS
1
1
1
RBeamAtt,SBeamAtt,60mm sphere
0
0
0
0
Fix
 
0
0.2
0
0
0
 
 
 
0
 
0
319.2
0
Front
100
 
S:100 R:100
 
0
0
0
 
0
 
 
 
0
 
 
0
0
0
0
0
 
 
 
 
0
0


0
0
#HDR
-1
-1
#GR
nm
%T
1.0
0.0
750.000000
-1.500000
301
8
75.513636
-0.041047
#DATA
750.000000	75.086009
748.500000	75.443291
747.000000	75.467349
745.500000	75.513636
744.000000	75.491636
742.500000	75.398620
741.000000	75.396502
739.500000	75.313264
738.000000	75.452999
736.500000	75.416807
735.000000	75.302152
733.500000	75.414068
732.000000	75.401229
730.500000	75.401908
729.000000	75.373565
727.500000	75.185520
726.000000	75.184462
724.500000	75.358513
723.000000	75.163598
721.500000	75.204652
720.000000	75.261679
718.500000	75.189135
717.000000	75.138395
715.500000	75.166902
714.000000	75.252720
712.500000	75.085163
711.000000	75.268028
709.500000	75.111388
708.000000	75.154141
706.500000	75.186461
705.000000	75.105238
703.500000	75.036308
702.000000	75.069187
700.500000	75.089423
699.000000	75.096846
697.500000	74.908956
696.000000	74.985284
694.500000	74.913552
693.000000	74.964945
691.500000	74.954627
690.000000	74.728847
688.500000	74.942749
687.000000	75.029164
685.500000	75.022636
684.000000	75.029167
682.500000	74.888076
681.000000	74.997644
679.500000	74.949276
678.000000	74.961292
676.500000	74.840826
675.000000	74.887322
673.500000	74.795820
672.000000	74.813318
670.500000	74.825794
669.000000	74.758119
667.500000	74.884924
666.000000	74.764479
664.500000	74.776603
663.000000	74.881939
661.500000	74.829969
660.000000	74.746186
658.500000	74.693760
657.000000	74.675048
655.500000	74.665038
654.000000	74.640215
652.500000	74.643779
651.000000	74.632924
649.500000	74.662184
648.000000	74.702209
646.500000	74.674823
645.000000	74.548761
643.500000	74.576553
642.000000	74.594369
640.500000	74.560609
639.000000	74.559813
637.500000	74.475516
636.000000	74.465623
634.500000	74.512617
633.000000	74.503346
631.500000	74.486291
630.000000	74.428174
628.500000	74.456854
627.000000	74.403540
625.500000	74.365090
624.000000	74.427213
622.500000	74.341426
621.000000	74.369428
619.500000	74.409686
618.000000	74.293596
616.500000	74.278263
615.000000	74.268478
613.500000	74.280776
612.000000	74.252871
610.500000	74.228074
609.000000	74.238589
607.500000	74.174057
606.000000	74.162897
604.500000	74.136705
603.000000	74.141306
601.500000	74.112418
600.000000	74.069870
598.500000	74.078108
597.000000	74.099067
595.500000	74.078368
594.000000	74.065195
592.500000	74.045941
591.000000	73.987738
589.500000	73.971425
588.000000	73.967823
586.500000	73.953242
585.000000	73.953876
583.500000	73.918113
582.000000	73.913011
580.500000	73.887037
579.000000	73.855328
577.500000	73.875574
576.000000	73.837806
574.500000	73.829722
573.000000	73.828464
571.500000	73.805110
570.000000	73.775356
568.500000	73.755398
567.000000	73.696822
565.500000	73.634493
564.000000	73.576047
562.500000	73.599360
561.000000	73.769088
559.500000	73.854925
558.000000	73.844412
556.500000	73.855427
555.000000	73.843287
553.500000	73.853515
552.000000	73.846615
550.500000	73.834634
549.000000	73.809665
547.500000	73.823135
546.000000	73.862408
544.500000	73.833560
543.000000	73.808909
541.500000	73.781614
540.000000	73.771750
538.500000	73.791158
537.000000	73.792752
535.500000	73.789426
534.000000	73.799589
532.500000	73.822940
531.000000	73.808881
529.500000	73.826332
528.000000	73.807729
526.500000	73.779171
525.000000	73.791835
523.500000	73.750536
522.000000	73.692643
520.500000	73.641686
519.000000	73.559496
517.500000	73.444201
516.000000	73.282580
514.500000	73.099207
513.000000	72.890097
511.500000	72.627246
510.000000	72.353398
508.500000	72.112977
507.000000	71.887685
505.500000	71.693706
504.000000	71.522744
502.500000	71.383889
501.000000	71.333527
499.500000	71.399081
498.000000	71.421161
496.500000	71.424032
495.000000	71.490958
493.500000	71.578934
492.000000	71.725743
490.500000	71.807370
489.000000	71.941789
487.500000	72.125493
486.000000	72.262398
484.500000	72.480924
483.000000	72.822574
481.500000	73.272394
480.000000	73.434662
478.500000	73.236643
477.000000	73.032106
475.500000	72.875435
474.000000	72.762297
472.500000	72.659364
471.000000	72.535674
469.500000	72.355505
468.000000	72.098236
466.500000	71.848209
465.000000	71.579858
463.500000	71.310940
462.000000	71.107557
460.500000	70.977963
459.000000	70.828218
457.500000	70.712316
456.000000	70.638543
454.500000	70.674929
453.000000	70.614125
451.500000	70.562178
450.000000	70.591508
448.500000	70.617601
447.000000	70.589061
445.500000	70.583826
444.000000	70.846109
442.500000	70.981532
441.000000	70.937672
439.500000	70.831304
438.000000	70.717793
436.500000	70.705607
435.000000	70.625064
433.500000	70.549837
432.000000	70.543083
430.500000	70.511185
429.000000	70.437348
427.500000	70.352480
426.000000	70.330478
424.500000	70.238765
423.000000	70.201840
421.500000	70.092161
420.000000	70.060336
418.500000	69.966884
417.000000	69.900454
415.500000	69.765850
414.000000	69.767454
412.500000	69.537541
411.000000	69.504784
409.500000	69.419965
408.000000	69.379391
406.500000	69.336511
405.000000	69.183770
403.500000	69.018282
402.000000	68.924830
400.500000	68.876222
399.000000	68.624948
397.500000	68.682166
396.000000	68.445883
394.500000	68.385390
393.000000	68.276377
391.500000	68.216907
390.000000	67.995914
388.500000	67.844211
387.000000	67.743013
385.500000	67.530264
384.000000	67.334172
382.500000	67.020590
381.000000	66.735859
379.500000	66.585457
378.000000	66.349408
376.500000	66.999971
375.000000	67.153481
373.500000	66.254978
372.000000	65.332158
370.500000	64.273442
369.000000	63.093402
367.500000	61.764481
366.000000	60.351681
364.500000	58.439091
363.000000	56.287253
361.500000	53.609318
360.000000	50.535478
358.500000	47.064076
357.000000	42.870719
355.500000	38.201398
354.000000	33.122292
352.500000	27.860945
351.000000	22.500080
349.500000	17.264062
348.000000	12.568948
346.500000	8.488256
345.000000	5.258898
343.500000	2.932651
342.000000	1.416565
340.500000	0.582786
339.000000	0.213485
337.500000	0.067539
336.000000	0.030376
334.500000	0.025151
333.000000	0.037126
331.500000	0.021163
330.000000	0.022615
328.500000	0.036685
327.000000	0.020057
325.500000	0.031528
324.000000	0.030321
322.500000	0.019349
321.000000	0.021526
319.500000	0.025475
318.000000	-0.004609
316.500000	-0.040005
315.000000	-0.041047
313.500000	-0.037893
312.000000	-0.038208
310.500000	-0.034181
309.000000	-0.029051
307.500000	-0.029497
306.000000	-0.013172
304.500000	-0.011288
303.000000	-0.015597
301.500000	-0.024254
300.000000	-0.018070
