PE UV       SUBTECH     SPECTRUM    ASCII       PEDS        4.00        
   -1
Sample57.Sample.Raw.asc
20/12/15
16:14:36.00
20/12/15
16:14:36.00
Administrator

300.000000
1
Lambda 850
850L1710193
PerkinElmer UV WinLab 6.4.0.973 / 2.02.06 Lambda 800 UV/VIS, Jan 28 2016 16:58:34

0
0
2
0
0
UV/VIS
1
1
1
RBeamAtt,SBeamAtt,60mm sphere
0
0
0
0
Fix
 
0
0.2
0
0
0
 
 
 
0
 
0
319.2
0
Front
100
 
S:100 R:100
 
0
0
0
 
0
 
 
 
0
 
 
0
0
0
0
0
 
 
 
 
0
0


0
0
#HDR
-1
-1
#GR
nm
%T
1.0
0.0
750.000000
-1.500000
301
8
74.298304
-0.030885
#DATA
750.000000	73.966081
748.500000	74.033464
747.000000	74.132977
745.500000	74.152874
744.000000	74.298304
742.500000	74.114633
741.000000	74.086163
739.500000	74.067718
738.000000	74.209012
736.500000	74.168085
735.000000	74.068692
733.500000	74.013609
732.000000	74.057859
730.500000	73.992120
729.000000	73.914076
727.500000	74.000021
726.000000	73.920715
724.500000	74.084513
723.000000	73.980808
721.500000	73.960999
720.000000	73.979283
718.500000	74.031078
717.000000	74.011081
715.500000	73.877773
714.000000	74.029740
712.500000	73.973986
711.000000	73.958087
709.500000	73.890781
708.000000	73.936891
706.500000	73.849109
705.000000	74.003357
703.500000	73.895887
702.000000	73.823650
700.500000	73.816751
699.000000	73.812154
697.500000	73.740021
696.000000	73.790056
694.500000	73.789503
693.000000	73.722211
691.500000	73.709269
690.000000	73.568967
688.500000	73.768512
687.000000	73.713880
685.500000	73.782192
684.000000	73.763907
682.500000	73.722428
681.000000	73.739689
679.500000	73.655280
678.000000	73.656702
676.500000	73.566944
675.000000	73.606996
673.500000	73.564759
672.000000	73.614467
670.500000	73.571526
669.000000	73.583277
667.500000	73.598843
666.000000	73.559080
664.500000	73.548819
663.000000	73.557964
661.500000	73.559182
660.000000	73.461946
658.500000	73.477094
657.000000	73.513704
655.500000	73.461968
654.000000	73.427266
652.500000	73.374506
651.000000	73.419449
649.500000	73.428105
648.000000	73.425349
646.500000	73.399286
645.000000	73.324108
643.500000	73.352978
642.000000	73.380748
640.500000	73.294863
639.000000	73.288697
637.500000	73.270806
636.000000	73.235773
634.500000	73.257766
633.000000	73.255013
631.500000	73.200847
630.000000	73.169324
628.500000	73.209163
627.000000	73.166506
625.500000	73.158053
624.000000	73.175165
622.500000	73.125197
621.000000	73.124150
619.500000	73.122275
618.000000	73.084289
616.500000	73.069118
615.000000	73.030682
613.500000	73.031091
612.000000	72.996685
610.500000	72.977750
609.000000	72.979172
607.500000	72.912139
606.000000	72.907191
604.500000	72.859760
603.000000	72.840176
601.500000	72.863069
600.000000	72.823234
598.500000	72.797789
597.000000	72.818617
595.500000	72.796905
594.000000	72.766354
592.500000	72.734828
591.000000	72.690907
589.500000	72.703405
588.000000	72.696506
586.500000	72.660883
585.000000	72.671563
583.500000	72.618504
582.000000	72.577565
580.500000	72.577878
579.000000	72.543643
577.500000	72.502628
576.000000	72.469669
574.500000	72.469356
573.000000	72.464908
571.500000	72.444096
570.000000	72.415406
568.500000	72.361093
567.000000	72.303076
565.500000	72.276553
564.000000	72.191879
562.500000	72.172258
561.000000	72.292332
559.500000	72.396470
558.000000	72.398105
556.500000	72.385650
555.000000	72.346177
553.500000	72.340965
552.000000	72.346500
550.500000	72.315707
549.000000	72.263159
547.500000	72.215991
546.000000	72.233603
544.500000	72.241342
543.000000	72.207030
541.500000	72.177126
540.000000	72.145307
538.500000	72.117958
537.000000	72.117473
535.500000	72.120835
534.000000	72.085295
532.500000	72.077335
531.000000	72.066950
529.500000	72.018943
528.000000	71.990547
526.500000	71.958906
525.000000	71.929118
523.500000	71.879632
522.000000	71.808856
520.500000	71.743313
519.000000	71.632408
517.500000	71.500753
516.000000	71.343735
514.500000	71.144639
513.000000	70.919152
511.500000	70.688842
510.000000	70.449868
508.500000	70.238774
507.000000	70.013041
505.500000	69.835455
504.000000	69.695256
502.500000	69.630130
501.000000	69.649843
499.500000	69.746480
498.000000	69.812356
496.500000	69.896835
495.000000	69.998087
493.500000	70.140082
492.000000	70.330064
490.500000	70.463022
489.000000	70.566920
487.500000	70.714564
486.000000	70.877965
484.500000	71.022522
483.000000	71.263602
481.500000	71.637007
480.000000	71.687191
478.500000	71.410619
477.000000	71.133512
475.500000	70.976082
474.000000	70.832714
472.500000	70.692185
471.000000	70.498510
469.500000	70.291721
468.000000	70.039463
466.500000	69.824251
465.000000	69.520977
463.500000	69.270655
462.000000	69.103314
460.500000	68.958148
459.000000	68.871617
457.500000	68.803380
456.000000	68.763779
454.500000	68.814219
453.000000	68.760857
451.500000	68.787716
450.000000	68.833916
448.500000	68.924749
447.000000	68.871861
445.500000	68.948281
444.000000	69.183606
442.500000	69.343520
441.000000	69.284344
439.500000	69.153449
438.000000	69.029278
436.500000	68.998911
435.000000	68.907944
433.500000	68.849699
432.000000	68.819346
430.500000	68.760846
429.000000	68.636549
427.500000	68.574189
426.000000	68.470657
424.500000	68.436125
423.000000	68.328877
421.500000	68.236597
420.000000	68.149933
418.500000	68.067477
417.000000	67.968455
415.500000	67.822374
414.000000	67.808892
412.500000	67.602848
411.000000	67.629059
409.500000	67.450415
408.000000	67.438723
406.500000	67.320740
405.000000	67.153708
403.500000	67.023545
402.000000	66.907143
400.500000	66.745984
399.000000	66.577826
397.500000	66.548191
396.000000	66.345638
394.500000	66.206961
393.000000	66.006727
391.500000	65.919789
390.000000	65.694845
388.500000	65.497178
387.000000	65.260593
385.500000	65.108176
384.000000	64.834454
382.500000	64.400417
381.000000	64.062478
379.500000	63.702269
378.000000	63.456088
376.500000	64.001312
375.000000	63.704327
373.500000	62.663130
372.000000	61.551089
370.500000	60.193846
369.000000	58.660520
367.500000	56.855159
366.000000	54.848430
364.500000	52.330034
363.000000	49.557974
361.500000	45.981062
360.000000	42.091861
358.500000	37.664137
357.000000	32.821113
355.500000	27.625248
354.000000	22.211000
352.500000	17.049827
351.000000	12.404620
349.500000	8.470525
348.000000	5.445636
346.500000	3.272858
345.000000	1.839835
343.500000	0.969290
342.000000	0.455143
340.500000	0.199805
339.000000	0.083541
337.500000	0.042432
336.000000	0.042415
334.500000	0.023387
333.000000	0.028608
331.500000	0.029610
330.000000	0.027620
328.500000	0.031948
327.000000	0.029715
325.500000	0.029854
324.000000	0.037296
322.500000	0.019442
321.000000	0.033548
319.500000	0.020063
318.000000	-0.002258
316.500000	-0.027233
315.000000	-0.029869
313.500000	-0.026704
312.000000	-0.030020
310.500000	-0.030885
309.000000	-0.020185
307.500000	-0.015032
306.000000	-0.011846
304.500000	-0.010340
303.000000	-0.011983
301.500000	-0.016360
300.000000	-0.018735
