PE UV       SUBTECH     SPECTRUM    ASCII       PEDS        4.00        
   -1
Sample54.Sample.Raw.asc
20/12/15
16:03:01.00
20/12/15
16:03:01.00
Administrator

300.000000
1
Lambda 850
850L1710193
PerkinElmer UV WinLab 6.4.0.973 / 2.02.06 Lambda 800 UV/VIS, Jan 28 2016 16:58:34

0
0
2
0
0
UV/VIS
1
1
1
RBeamAtt,SBeamAtt,60mm sphere
0
0
0
0
Fix
 
0
0.2
0
0
0
 
 
 
0
 
0
319.2
0
Front
100
 
S:100 R:100
 
0
0
0
 
0
 
 
 
0
 
 
0
0
0
0
0
 
 
 
 
0
0


0
0
#HDR
-1
-1
#GR
nm
%T
1.0
0.0
750.000000
-1.500000
301
8
75.597393
-0.033901
#DATA
750.000000	75.112258
748.500000	75.374057
747.000000	75.390559
745.500000	75.542698
744.000000	75.597393
742.500000	75.530719
741.000000	75.419280
739.500000	75.351463
738.000000	75.432522
736.500000	75.391485
735.000000	75.396865
733.500000	75.381272
732.000000	75.391914
730.500000	75.292895
729.000000	75.346170
727.500000	75.199372
726.000000	75.353843
724.500000	75.397348
723.000000	75.310767
721.500000	75.327322
720.000000	75.184553
718.500000	75.247656
717.000000	75.172441
715.500000	75.205508
714.000000	75.216759
712.500000	75.146353
711.000000	75.258818
709.500000	75.125955
708.000000	75.185821
706.500000	75.142458
705.000000	75.157348
703.500000	75.098202
702.000000	75.104332
700.500000	75.084123
699.000000	75.055536
697.500000	74.992376
696.000000	75.043821
694.500000	74.974435
693.000000	74.924625
691.500000	74.963204
690.000000	74.755134
688.500000	75.034384
687.000000	74.944004
685.500000	75.034998
684.000000	74.952125
682.500000	74.880546
681.000000	74.932747
679.500000	74.929363
678.000000	74.893708
676.500000	74.840744
675.000000	74.871664
673.500000	74.782874
672.000000	74.828487
670.500000	74.828255
669.000000	74.800945
667.500000	74.823998
666.000000	74.731575
664.500000	74.731874
663.000000	74.794934
661.500000	74.782732
660.000000	74.728615
658.500000	74.697701
657.000000	74.675541
655.500000	74.664216
654.000000	74.616963
652.500000	74.634249
651.000000	74.637199
649.500000	74.642037
648.000000	74.591267
646.500000	74.621851
645.000000	74.528124
643.500000	74.529581
642.000000	74.590583
640.500000	74.528112
639.000000	74.534957
637.500000	74.481441
636.000000	74.477803
634.500000	74.468989
633.000000	74.471319
631.500000	74.494857
630.000000	74.362135
628.500000	74.362602
627.000000	74.374048
625.500000	74.354297
624.000000	74.368844
622.500000	74.347854
621.000000	74.281492
619.500000	74.289380
618.000000	74.302417
616.500000	74.272988
615.000000	74.247536
613.500000	74.254552
612.000000	74.230528
610.500000	74.231702
609.000000	74.211040
607.500000	74.151879
606.000000	74.097276
604.500000	74.067306
603.000000	74.079308
601.500000	74.106562
600.000000	74.100724
598.500000	74.099561
597.000000	74.080414
595.500000	74.038016
594.000000	74.065607
592.500000	74.033232
591.000000	73.971239
589.500000	73.973818
588.000000	73.939936
586.500000	73.928327
585.000000	73.934976
583.500000	73.898968
582.000000	73.867050
580.500000	73.847678
579.000000	73.851945
577.500000	73.831094
576.000000	73.789038
574.500000	73.782520
573.000000	73.768949
571.500000	73.767221
570.000000	73.716770
568.500000	73.657796
567.000000	73.653682
565.500000	73.628802
564.000000	73.558319
562.500000	73.571662
561.000000	73.727437
559.500000	73.812668
558.000000	73.822127
556.500000	73.831409
555.000000	73.808869
553.500000	73.807039
552.000000	73.816479
550.500000	73.815480
549.000000	73.774589
547.500000	73.748282
546.000000	73.782896
544.500000	73.777246
543.000000	73.746838
541.500000	73.745962
540.000000	73.761187
538.500000	73.772834
537.000000	73.764773
535.500000	73.776387
534.000000	73.781269
532.500000	73.783817
531.000000	73.773802
529.500000	73.785223
528.000000	73.771080
526.500000	73.742439
525.000000	73.734203
523.500000	73.711395
522.000000	73.653332
520.500000	73.583366
519.000000	73.496801
517.500000	73.374981
516.000000	73.216661
514.500000	73.015116
513.000000	72.798586
511.500000	72.567705
510.000000	72.320621
508.500000	72.071455
507.000000	71.816126
505.500000	71.617352
504.000000	71.438641
502.500000	71.316198
501.000000	71.294216
499.500000	71.314178
498.000000	71.331066
496.500000	71.347412
495.000000	71.433575
493.500000	71.532448
492.000000	71.660776
490.500000	71.770099
489.000000	71.884966
487.500000	72.047644
486.000000	72.182185
484.500000	72.448776
483.000000	72.790393
481.500000	73.202728
480.000000	73.341704
478.500000	73.173725
477.000000	72.951282
475.500000	72.817180
474.000000	72.700130
472.500000	72.590264
471.000000	72.456070
469.500000	72.258140
468.000000	72.005789
466.500000	71.783947
465.000000	71.521140
463.500000	71.265254
462.000000	71.040106
460.500000	70.908335
459.000000	70.747126
457.500000	70.639209
456.000000	70.574318
454.500000	70.621630
453.000000	70.532096
451.500000	70.521598
450.000000	70.513524
448.500000	70.529194
447.000000	70.494023
445.500000	70.500098
444.000000	70.761103
442.500000	70.892260
441.000000	70.881836
439.500000	70.776143
438.000000	70.677321
436.500000	70.664171
435.000000	70.592789
433.500000	70.515861
432.000000	70.491395
430.500000	70.464432
429.000000	70.420745
427.500000	70.300973
426.000000	70.200514
424.500000	70.160246
423.000000	70.074814
421.500000	70.007510
420.000000	69.913070
418.500000	69.804692
417.000000	69.737526
415.500000	69.642675
414.000000	69.668735
412.500000	69.466302
411.000000	69.433159
409.500000	69.299862
408.000000	69.217040
406.500000	69.130750
405.000000	69.020118
403.500000	68.931192
402.000000	68.806752
400.500000	68.697059
399.000000	68.588898
397.500000	68.513366
396.000000	68.348412
394.500000	68.315431
393.000000	68.218606
391.500000	68.083334
390.000000	67.901953
388.500000	67.775451
387.000000	67.642326
385.500000	67.443182
384.000000	67.202480
382.500000	66.932901
381.000000	66.621485
379.500000	66.411320
378.000000	66.202932
376.500000	66.988798
375.000000	67.097096
373.500000	66.179717
372.000000	65.210999
370.500000	64.227371
369.000000	62.972477
367.500000	61.772315
366.000000	60.291141
364.500000	58.471294
363.000000	56.417086
361.500000	53.729510
360.000000	50.824871
358.500000	47.247422
357.000000	43.213554
355.500000	38.621133
354.000000	33.503651
352.500000	28.336244
351.000000	22.947554
349.500000	17.698511
348.000000	12.926609
346.500000	8.802851
345.000000	5.505125
343.500000	3.088728
342.000000	1.540106
340.500000	0.657332
339.000000	0.264332
337.500000	0.101541
336.000000	0.066216
334.500000	0.059582
333.000000	0.064438
331.500000	0.067667
330.000000	0.076002
328.500000	0.063153
327.000000	0.068622
325.500000	0.081100
324.000000	0.068454
322.500000	0.057396
321.000000	0.069798
319.500000	0.058323
318.000000	0.001881
316.500000	-0.033901
315.000000	-0.025173
313.500000	-0.026139
312.000000	-0.028703
310.500000	-0.024294
309.000000	-0.015657
307.500000	-0.005389
306.000000	0.000000
304.500000	0.002277
303.000000	0.002092
301.500000	-0.004946
300.000000	-0.002948
