PE UV       SUBTECH     SPECTRUM    ASCII       PEDS        4.00        
   -1
Sample21.Sample.Raw.asc
21/03/30
16:04:11.00
21/03/30
16:04:11.00
Administrator

300.000000
1
Lambda 850
850L1710193
PerkinElmer UV WinLab 6.4.0.973 / 2.02.06 Lambda 800 UV/VIS, Jan 28 2016 16:58:34

0
0
2
0
0
UV/VIS
1
1
1
RBeamAtt,SBeamAtt,60mm sphere
0
0
0
0
Fix
 
0
0.2
0
0
0
 
 
 
0
 
0
340
0
Front
100
 
S:100 R:100
 
0
0
0
 
0
 
 
 
0
 
 
0
0
0
0
0
 
 
 
 
0
0


0
0
#HDR
-1
-1
#GR
nm
%T
1.0
0.0
750.000000
-1.500000
301
8
73.416558
-0.027520
#DATA
750.000000	73.078126
748.500000	73.375305
747.000000	73.378339
745.500000	73.389646
744.000000	73.356861
742.500000	73.388541
741.000000	73.325692
739.500000	73.383250
738.000000	73.381704
736.500000	73.311345
735.000000	73.261335
733.500000	73.188166
732.000000	73.166890
730.500000	73.416558
729.000000	73.375201
727.500000	73.273335
726.000000	73.235601
724.500000	73.224979
723.000000	73.173597
721.500000	73.291337
720.000000	73.298040
718.500000	73.180697
717.000000	73.130416
715.500000	73.113475
714.000000	73.059746
712.500000	73.154238
711.000000	73.117837
709.500000	73.048248
708.000000	73.108231
706.500000	73.029898
705.000000	73.008294
703.500000	73.031707
702.000000	72.999821
700.500000	72.964594
699.000000	72.938063
697.500000	72.931735
696.000000	72.923662
694.500000	72.963761
693.000000	72.934720
691.500000	72.808819
690.000000	72.694574
688.500000	72.868483
687.000000	72.853610
685.500000	72.816391
684.000000	72.734403
682.500000	72.757473
681.000000	72.813498
679.500000	72.716744
678.000000	72.687116
676.500000	72.700407
675.000000	72.707937
673.500000	72.574063
672.000000	72.643238
670.500000	72.586353
669.000000	72.587279
667.500000	72.618006
666.000000	72.552140
664.500000	72.550356
663.000000	72.533302
661.500000	72.458036
660.000000	72.439432
658.500000	72.414476
657.000000	72.342349
655.500000	72.298828
654.000000	72.251001
652.500000	72.291925
651.000000	72.187365
649.500000	72.224835
648.000000	72.160868
646.500000	72.125972
645.000000	72.169073
643.500000	72.114978
642.000000	72.083795
640.500000	72.046947
639.000000	71.940244
637.500000	71.916723
636.000000	71.943103
634.500000	71.898311
633.000000	71.819534
631.500000	71.738683
630.000000	71.741304
628.500000	71.750270
627.000000	71.717552
625.500000	71.653547
624.000000	71.574853
622.500000	71.521295
621.000000	71.518998
619.500000	71.483720
618.000000	71.435450
616.500000	71.409328
615.000000	71.392106
613.500000	71.283949
612.000000	71.237491
610.500000	71.229241
609.000000	71.187933
607.500000	71.132442
606.000000	71.068295
604.500000	71.030759
603.000000	71.003254
601.500000	70.944276
600.000000	70.922610
598.500000	70.877803
597.000000	70.806251
595.500000	70.798645
594.000000	70.729801
592.500000	70.638004
591.000000	70.630658
589.500000	70.570009
588.000000	70.493587
586.500000	70.457398
585.000000	70.435306
583.500000	70.392273
582.000000	70.290539
580.500000	70.192366
579.000000	70.177824
577.500000	70.154123
576.000000	70.097805
574.500000	70.074022
573.000000	70.059674
571.500000	69.956711
570.000000	69.822780
568.500000	69.784126
567.000000	69.746197
565.500000	69.662611
564.000000	69.597202
562.500000	69.556906
561.000000	69.648663
559.500000	69.745191
558.000000	69.702368
556.500000	69.645890
555.000000	69.590436
553.500000	69.580176
552.000000	69.539171
550.500000	69.455329
549.000000	69.411896
547.500000	69.400397
546.000000	69.342805
544.500000	69.288093
543.000000	69.230661
541.500000	69.174305
540.000000	69.159807
538.500000	69.144849
537.000000	69.125019
535.500000	69.066651
534.000000	69.013066
532.500000	68.982218
531.000000	68.974301
529.500000	68.935575
528.000000	68.853096
526.500000	68.782194
525.000000	68.749040
523.500000	68.693397
522.000000	68.613247
520.500000	68.522975
519.000000	68.413569
517.500000	68.283315
516.000000	68.116715
514.500000	67.935389
513.000000	67.748215
511.500000	67.520328
510.000000	67.264477
508.500000	67.050635
507.000000	66.859543
505.500000	66.728518
504.000000	66.607184
502.500000	66.546756
501.000000	66.563230
499.500000	66.623156
498.000000	66.710476
496.500000	66.816965
495.000000	66.944678
493.500000	67.130585
492.000000	67.217666
490.500000	67.347852
489.000000	67.490192
487.500000	67.635351
486.000000	67.732026
484.500000	67.874279
483.000000	68.119898
481.500000	68.389595
480.000000	68.434526
478.500000	68.137139
477.000000	67.831473
475.500000	67.703162
474.000000	67.554511
472.500000	67.389769
471.000000	67.259795
469.500000	67.072664
468.000000	66.825568
466.500000	66.559010
465.000000	66.314810
463.500000	66.112435
462.000000	65.912020
460.500000	65.782154
459.000000	65.691485
457.500000	65.637666
456.000000	65.675506
454.500000	65.711214
453.000000	65.715034
451.500000	65.761659
450.000000	65.766285
448.500000	65.756682
447.000000	65.752314
445.500000	65.820776
444.000000	66.095271
442.500000	66.290186
441.000000	66.110899
439.500000	65.996537
438.000000	65.962049
436.500000	65.873819
435.000000	65.818902
433.500000	65.788441
432.000000	65.716475
430.500000	65.534973
429.000000	65.524404
427.500000	65.372705
426.000000	65.297608
424.500000	65.296928
423.000000	65.193857
421.500000	65.077394
420.000000	65.072138
418.500000	65.038291
417.000000	64.857902
415.500000	64.762714
414.000000	64.741146
412.500000	64.569902
411.000000	64.531247
409.500000	64.374676
408.000000	64.292614
406.500000	64.225714
405.000000	64.113742
403.500000	63.987779
402.000000	63.955571
400.500000	63.786171
399.000000	63.667881
397.500000	63.582045
396.000000	63.489130
394.500000	63.327745
393.000000	63.252221
391.500000	63.052571
390.000000	62.956812
388.500000	62.824988
387.000000	62.628208
385.500000	62.393676
384.000000	62.218372
382.500000	61.972476
381.000000	61.607917
379.500000	61.211139
378.000000	61.066795
376.500000	61.371816
375.000000	61.533097
373.500000	60.382975
372.000000	59.333990
370.500000	57.984604
369.000000	56.680879
367.500000	54.830075
366.000000	52.852595
364.500000	50.456273
363.000000	47.577885
361.500000	44.416176
360.000000	40.553983
358.500000	36.257280
357.000000	31.428003
355.500000	26.473502
354.000000	21.287822
352.500000	16.340098
351.000000	11.859422
349.500000	8.065046
348.000000	5.173756
346.500000	3.106977
345.000000	1.725421
343.500000	0.896724
342.000000	0.429586
340.500000	0.191591
339.000000	0.051365
337.500000	-0.015489
336.000000	-0.023494
334.500000	-0.027520
333.000000	-0.027112
331.500000	-0.023671
330.000000	-0.021986
328.500000	-0.019402
327.000000	-0.022093
325.500000	-0.019595
324.000000	-0.024093
322.500000	-0.026763
321.000000	-0.020695
319.500000	-0.021768
318.000000	-0.005179
316.500000	-0.025817
315.000000	-0.024980
313.500000	-0.025196
312.000000	-0.026238
310.500000	-0.023841
309.000000	-0.019538
307.500000	-0.013811
306.000000	-0.007008
304.500000	-0.008256
303.000000	-0.009979
301.500000	-0.012154
300.000000	-0.009045
