PE UV       SUBTECH     SPECTRUM    ASCII       PEDS        4.00        
   -1
Sample149.Sample.Raw.asc
21/01/19
15:32:35.00
21/01/19
15:32:35.00
Administrator

300.000000
1
Lambda 850
850L1710193
PerkinElmer UV WinLab 6.4.0.973 / 2.02.06 Lambda 800 UV/VIS, Jan 28 2016 16:58:34

0
0
2
0
0
UV/VIS
1
1
1
RBeamAtt,SBeamAtt,60mm sphere
0
0
0
0
Fix
 
0
0.2
0
0
0
 
 
 
0
 
0
319.2
0
Front
100
 
S:100 R:100
 
0
0
0
 
0
 
 
 
0
 
 
0
0
0
0
0
 
 
 
 
0
0


0
0
#HDR
-1
-1
#GR
nm
%T
1.0
0.0
750.000000
-1.500000
301
8
75.183760
-0.021451
#DATA
750.000000	74.924802
748.500000	75.071561
747.000000	75.151483
745.500000	74.968155
744.000000	75.183077
742.500000	75.145542
741.000000	75.183760
739.500000	75.071603
738.000000	75.125751
736.500000	75.001255
735.000000	75.073799
733.500000	75.010906
732.000000	75.015480
730.500000	74.877486
729.000000	75.075337
727.500000	74.887288
726.000000	75.011815
724.500000	75.001057
723.000000	74.856811
721.500000	74.900860
720.000000	74.863294
718.500000	74.800369
717.000000	74.747544
715.500000	74.777252
714.000000	74.843936
712.500000	74.839528
711.000000	74.819979
709.500000	74.872270
708.000000	74.717314
706.500000	74.847735
705.000000	74.870110
703.500000	74.846312
702.000000	74.744193
700.500000	74.734529
699.000000	74.821998
697.500000	74.820882
696.000000	74.598518
694.500000	74.642372
693.000000	74.705359
691.500000	74.629506
690.000000	74.557617
688.500000	74.618463
687.000000	74.699096
685.500000	74.626366
684.000000	74.549078
682.500000	74.632328
681.000000	74.612881
679.500000	74.622338
678.000000	74.600119
676.500000	74.572650
675.000000	74.597798
673.500000	74.512773
672.000000	74.570837
670.500000	74.559246
669.000000	74.533920
667.500000	74.452996
666.000000	74.457592
664.500000	74.410889
663.000000	74.439334
661.500000	74.406410
660.000000	74.469418
658.500000	74.356156
657.000000	74.386169
655.500000	74.408876
654.000000	74.352663
652.500000	74.341529
651.000000	74.352073
649.500000	74.327500
648.000000	74.305418
646.500000	74.364909
645.000000	74.318279
643.500000	74.283651
642.000000	74.261919
640.500000	74.262320
639.000000	74.226262
637.500000	74.199674
636.000000	74.178607
634.500000	74.224678
633.000000	74.153811
631.500000	74.119733
630.000000	74.095844
628.500000	74.096422
627.000000	74.080784
625.500000	74.088141
624.000000	74.073756
622.500000	74.010558
621.000000	74.005777
619.500000	74.021210
618.000000	74.000931
616.500000	73.932065
615.000000	73.930138
613.500000	73.910064
612.000000	73.912595
610.500000	73.859162
609.000000	73.877747
607.500000	73.852848
606.000000	73.825814
604.500000	73.816651
603.000000	73.796849
601.500000	73.797082
600.000000	73.790081
598.500000	73.768430
597.000000	73.728017
595.500000	73.679441
594.000000	73.702359
592.500000	73.743909
591.000000	73.693208
589.500000	73.705427
588.000000	73.657962
586.500000	73.561109
585.000000	73.533260
583.500000	73.557062
582.000000	73.558871
580.500000	73.562624
579.000000	73.538978
577.500000	73.481803
576.000000	73.507827
574.500000	73.482606
573.000000	73.418208
571.500000	73.409882
570.000000	73.405492
568.500000	73.393635
567.000000	73.367592
565.500000	73.301988
564.000000	73.225204
562.500000	73.214408
561.000000	73.379623
559.500000	73.508322
558.000000	73.488233
556.500000	73.480971
555.000000	73.485132
553.500000	73.465877
552.000000	73.437971
550.500000	73.410318
549.000000	73.433557
547.500000	73.469639
546.000000	73.428827
544.500000	73.434093
543.000000	73.442065
541.500000	73.444042
540.000000	73.432114
538.500000	73.411222
537.000000	73.428409
535.500000	73.448641
534.000000	73.443500
532.500000	73.457557
531.000000	73.480609
529.500000	73.462114
528.000000	73.455769
526.500000	73.426861
525.000000	73.415008
523.500000	73.386402
522.000000	73.341490
520.500000	73.287392
519.000000	73.176893
517.500000	73.039170
516.000000	72.886831
514.500000	72.687967
513.000000	72.489721
511.500000	72.252582
510.000000	71.992429
508.500000	71.739943
507.000000	71.507314
505.500000	71.321392
504.000000	71.154629
502.500000	71.051763
501.000000	70.972029
499.500000	70.943543
498.000000	70.979246
496.500000	71.053519
495.000000	71.107053
493.500000	71.222375
492.000000	71.370671
490.500000	71.406587
489.000000	71.553088
487.500000	71.694304
486.000000	71.856747
484.500000	72.062347
483.000000	72.413257
481.500000	72.837801
480.000000	72.966903
478.500000	72.774888
477.000000	72.542944
475.500000	72.453376
474.000000	72.346205
472.500000	72.247159
471.000000	72.075334
469.500000	71.922529
468.000000	71.676978
466.500000	71.450439
465.000000	71.148308
463.500000	70.907231
462.000000	70.678297
460.500000	70.537259
459.000000	70.417692
457.500000	70.317909
456.000000	70.257158
454.500000	70.258620
453.000000	70.176885
451.500000	70.170444
450.000000	70.205094
448.500000	70.185653
447.000000	70.150443
445.500000	70.159027
444.000000	70.318950
442.500000	70.583800
441.000000	70.504166
439.500000	70.313448
438.000000	70.306366
436.500000	70.291113
435.000000	70.223047
433.500000	70.117212
432.000000	70.048959
430.500000	70.005523
429.000000	69.903332
427.500000	69.890310
426.000000	69.829294
424.500000	69.702928
423.000000	69.648968
421.500000	69.572734
420.000000	69.517691
418.500000	69.395912
417.000000	69.267444
415.500000	69.193924
414.000000	69.201403
412.500000	69.099160
411.000000	68.964295
409.500000	68.953660
408.000000	68.746564
406.500000	68.675710
405.000000	68.545116
403.500000	68.388667
402.000000	68.432943
400.500000	68.320247
399.000000	68.135900
397.500000	68.016114
396.000000	67.968409
394.500000	67.810287
393.000000	67.663862
391.500000	67.592159
390.000000	67.459236
388.500000	67.168387
387.000000	66.969617
385.500000	66.982037
384.000000	66.687298
382.500000	66.452282
381.000000	66.088842
379.500000	65.820235
378.000000	65.802618
376.500000	66.337884
375.000000	66.365006
373.500000	65.664963
372.000000	64.664771
370.500000	63.832582
369.000000	62.692209
367.500000	61.628293
366.000000	60.179271
364.500000	58.585074
363.000000	56.830670
361.500000	54.514448
360.000000	51.773022
358.500000	48.785922
357.000000	45.041765
355.500000	40.914279
354.000000	36.396297
352.500000	31.338411
351.000000	26.117329
349.500000	20.903787
348.000000	15.986121
346.500000	11.450106
345.000000	7.613882
343.500000	4.656236
342.000000	2.552857
340.500000	1.220935
339.000000	0.511704
337.500000	0.177046
336.000000	0.076138
334.500000	0.056254
333.000000	0.054342
331.500000	0.055833
330.000000	0.058659
328.500000	0.049043
327.000000	0.050174
325.500000	0.053851
324.000000	0.043382
322.500000	0.053700
321.000000	0.058118
319.500000	0.049690
318.000000	0.018927
316.500000	-0.021451
315.000000	-0.019008
313.500000	-0.015252
312.000000	-0.012160
310.500000	-0.015941
309.000000	-0.006235
307.500000	-0.005203
306.000000	0.002845
304.500000	0.006080
303.000000	0.001524
301.500000	-0.005427
300.000000	-0.006099
