PE UV       SUBTECH     SPECTRUM    ASCII       PEDS        4.00        
   -1
Sample5.Sample.Raw.asc
21/03/26
11:36:47.00
21/03/26
11:36:47.00
Administrator

300.000000
1
Lambda 850
850L1710193
PerkinElmer UV WinLab 6.4.0.973 / 2.02.06 Lambda 800 UV/VIS, Jan 28 2016 16:58:34

0
0
2
0
0
UV/VIS
1
1
1
RBeamAtt,SBeamAtt,60mm sphere
0
0
0
0
Fix
 
0
0.2
0
0
0
 
 
 
0
 
0
340
0
Front
100
 
S:100 R:100
 
0
0
0
 
0
 
 
 
0
 
 
0
0
0
0
0
 
 
 
 
0
0


0
0
#HDR
-1
-1
#GR
nm
%T
1.0
0.0
750.000000
-1.500000
301
8
74.161577
-0.032135
#DATA
750.000000	73.775386
748.500000	74.050439
747.000000	73.887393
745.500000	74.068871
744.000000	74.011762
742.500000	74.074942
741.000000	74.026752
739.500000	74.161577
738.000000	74.131656
736.500000	74.014478
735.000000	74.003045
733.500000	74.053385
732.000000	73.955646
730.500000	73.919386
729.000000	73.945898
727.500000	74.013788
726.000000	73.831349
724.500000	73.897810
723.000000	73.848913
721.500000	73.917305
720.000000	73.848699
718.500000	74.080484
717.000000	73.887176
715.500000	73.955047
714.000000	73.888810
712.500000	73.948419
711.000000	73.847681
709.500000	73.797992
708.000000	73.838364
706.500000	73.894109
705.000000	73.778693
703.500000	73.778878
702.000000	73.790921
700.500000	73.781427
699.000000	73.783637
697.500000	73.819213
696.000000	73.723672
694.500000	73.731847
693.000000	73.647132
691.500000	73.577229
690.000000	73.450181
688.500000	73.636208
687.000000	73.615802
685.500000	73.653339
684.000000	73.652533
682.500000	73.640944
681.000000	73.643360
679.500000	73.622022
678.000000	73.566372
676.500000	73.577737
675.000000	73.571330
673.500000	73.598735
672.000000	73.525682
670.500000	73.597114
669.000000	73.494786
667.500000	73.497362
666.000000	73.524504
664.500000	73.504054
663.000000	73.486449
661.500000	73.439513
660.000000	73.469918
658.500000	73.406533
657.000000	73.506522
655.500000	73.463435
654.000000	73.447870
652.500000	73.402915
651.000000	73.410771
649.500000	73.324778
648.000000	73.307096
646.500000	73.313950
645.000000	73.249546
643.500000	73.274635
642.000000	73.310814
640.500000	73.271335
639.000000	73.237968
637.500000	73.203267
636.000000	73.215455
634.500000	73.196767
633.000000	73.192258
631.500000	73.104754
630.000000	73.132476
628.500000	73.176466
627.000000	73.112324
625.500000	73.059057
624.000000	73.087111
622.500000	73.061592
621.000000	73.086844
619.500000	73.085953
618.000000	73.017537
616.500000	72.978300
615.000000	72.959743
613.500000	72.899889
612.000000	72.909074
610.500000	72.894617
609.000000	72.881518
607.500000	72.810320
606.000000	72.810570
604.500000	72.851616
603.000000	72.822156
601.500000	72.813889
600.000000	72.768245
598.500000	72.748153
597.000000	72.737581
595.500000	72.719461
594.000000	72.680425
592.500000	72.646196
591.000000	72.666570
589.500000	72.614556
588.000000	72.576026
586.500000	72.595041
585.000000	72.617112
583.500000	72.579150
582.000000	72.493371
580.500000	72.473952
579.000000	72.473765
577.500000	72.454133
576.000000	72.448275
574.500000	72.398608
573.000000	72.346422
571.500000	72.283503
570.000000	72.264689
568.500000	72.238775
567.000000	72.217679
565.500000	72.180094
564.000000	72.088146
562.500000	72.087978
561.000000	72.268987
559.500000	72.347783
558.000000	72.312568
556.500000	72.288273
555.000000	72.273745
553.500000	72.223034
552.000000	72.192437
550.500000	72.214744
549.000000	72.178453
547.500000	72.136979
546.000000	72.152524
544.500000	72.137910
543.000000	72.108938
541.500000	72.067877
540.000000	72.040260
538.500000	72.028619
537.000000	72.005259
535.500000	71.989120
534.000000	72.013590
532.500000	72.021198
531.000000	71.975756
529.500000	71.967836
528.000000	71.926555
526.500000	71.865034
525.000000	71.818883
523.500000	71.767824
522.000000	71.723511
520.500000	71.638140
519.000000	71.555543
517.500000	71.445573
516.000000	71.263182
514.500000	71.083052
513.000000	70.868842
511.500000	70.616264
510.000000	70.376572
508.500000	70.158055
507.000000	69.956854
505.500000	69.774894
504.000000	69.674606
502.500000	69.618538
501.000000	69.626443
499.500000	69.686027
498.000000	69.757898
496.500000	69.868151
495.000000	69.988821
493.500000	70.106486
492.000000	70.250384
490.500000	70.364640
489.000000	70.501167
487.500000	70.682984
486.000000	70.793926
484.500000	70.977446
483.000000	71.259319
481.500000	71.563167
480.000000	71.587681
478.500000	71.322205
477.000000	71.062145
475.500000	70.886694
474.000000	70.719909
472.500000	70.593796
471.000000	70.431392
469.500000	70.198484
468.000000	69.957773
466.500000	69.699969
465.000000	69.469139
463.500000	69.258443
462.000000	69.062365
460.500000	68.916513
459.000000	68.810435
457.500000	68.735965
456.000000	68.697927
454.500000	68.737453
453.000000	68.793504
451.500000	68.758825
450.000000	68.817230
448.500000	68.904727
447.000000	68.861587
445.500000	68.970025
444.000000	69.173668
442.500000	69.310795
441.000000	69.210234
439.500000	69.118562
438.000000	69.031820
436.500000	68.931527
435.000000	68.852811
433.500000	68.811121
432.000000	68.755182
430.500000	68.637100
429.000000	68.523214
427.500000	68.478275
426.000000	68.417104
424.500000	68.338343
423.000000	68.244112
421.500000	68.158013
420.000000	68.107535
418.500000	67.978973
417.000000	67.898006
415.500000	67.843009
414.000000	67.757526
412.500000	67.698643
411.000000	67.577844
409.500000	67.564043
408.000000	67.449393
406.500000	67.254299
405.000000	67.121258
403.500000	67.052405
402.000000	66.944843
400.500000	66.782246
399.000000	66.756935
397.500000	66.616674
396.000000	66.478406
394.500000	66.295418
393.000000	66.152318
391.500000	65.984437
390.000000	65.851029
388.500000	65.627430
387.000000	65.458899
385.500000	65.248165
384.000000	65.024152
382.500000	64.680973
381.000000	64.462666
379.500000	64.052428
378.000000	63.834677
376.500000	64.219718
375.000000	64.307602
373.500000	63.093586
372.000000	61.943331
370.500000	60.847622
369.000000	59.354539
367.500000	57.620650
366.000000	55.602916
364.500000	53.128143
363.000000	50.258017
361.500000	46.986586
360.000000	43.205187
358.500000	38.691961
357.000000	33.979305
355.500000	28.652373
354.000000	23.290324
352.500000	18.080672
351.000000	13.204688
349.500000	9.126622
348.000000	5.900296
346.500000	3.556924
345.000000	2.010061
343.500000	1.067414
342.000000	0.521209
340.500000	0.220111
339.000000	0.073411
337.500000	0.015135
336.000000	-0.009469
334.500000	-0.001207
333.000000	0.001672
331.500000	-0.011355
330.000000	-0.004377
328.500000	-0.011559
327.000000	-0.019006
325.500000	-0.022208
324.000000	-0.026420
322.500000	-0.012427
321.000000	-0.031015
319.500000	-0.017312
318.000000	-0.002634
316.500000	-0.024903
315.000000	-0.032135
313.500000	-0.027572
312.000000	-0.025605
310.500000	-0.022140
309.000000	-0.007919
307.500000	-0.010689
306.000000	-0.001137
304.500000	0.001235
303.000000	-0.000950
301.500000	-0.003137
300.000000	-0.000190
