PE UV       SUBTECH     SPECTRUM    ASCII       PEDS        4.00        
   -1
Sample2.Sample.Raw.asc
21/03/26
11:26:53.00
21/03/26
11:26:53.00
Administrator

300.000000
1
Lambda 850
850L1710193
PerkinElmer UV WinLab 6.4.0.973 / 2.02.06 Lambda 800 UV/VIS, Jan 28 2016 16:58:34

0
0
2
0
0
UV/VIS
1
1
1
RBeamAtt,SBeamAtt,60mm sphere
0
0
0
0
Fix
 
0
0.2
0
0
0
 
 
 
0
 
0
340
0
Front
100
 
S:100 R:100
 
0
0
0
 
0
 
 
 
0
 
 
0
0
0
0
0
 
 
 
 
0
0


0
0
#HDR
-1
-1
#GR
nm
%T
1.0
0.0
750.000000
-1.500000
301
8
73.992997
-0.047215
#DATA
750.000000	73.574558
748.500000	73.820775
747.000000	73.765536
745.500000	73.777197
744.000000	73.892048
742.500000	73.818987
741.000000	73.784177
739.500000	73.850072
738.000000	73.992997
736.500000	73.737930
735.000000	73.730602
733.500000	73.838891
732.000000	73.646112
730.500000	73.670160
729.000000	73.675487
727.500000	73.708953
726.000000	73.805537
724.500000	73.641028
723.000000	73.701203
721.500000	73.640647
720.000000	73.643271
718.500000	73.778135
717.000000	73.756476
715.500000	73.595362
714.000000	73.663568
712.500000	73.637445
711.000000	73.632754
709.500000	73.696168
708.000000	73.604370
706.500000	73.564326
705.000000	73.629205
703.500000	73.544462
702.000000	73.576478
700.500000	73.634115
699.000000	73.591599
697.500000	73.571370
696.000000	73.526735
694.500000	73.658527
693.000000	73.520374
691.500000	73.406344
690.000000	73.249546
688.500000	73.428115
687.000000	73.410572
685.500000	73.413543
684.000000	73.386761
682.500000	73.512878
681.000000	73.456167
679.500000	73.394447
678.000000	73.377814
676.500000	73.360626
675.000000	73.305320
673.500000	73.342461
672.000000	73.319495
670.500000	73.358749
669.000000	73.310761
667.500000	73.370740
666.000000	73.343443
664.500000	73.313388
663.000000	73.308785
661.500000	73.222003
660.000000	73.222688
658.500000	73.182169
657.000000	73.217664
655.500000	73.224129
654.000000	73.152320
652.500000	73.130983
651.000000	73.152892
649.500000	73.097302
648.000000	73.073918
646.500000	73.104099
645.000000	73.063772
643.500000	73.079900
642.000000	73.087242
640.500000	73.051744
639.000000	73.006976
637.500000	73.029604
636.000000	72.987195
634.500000	73.007890
633.000000	72.986215
631.500000	72.902398
630.000000	72.924394
628.500000	72.920581
627.000000	72.897014
625.500000	72.868702
624.000000	72.870952
622.500000	72.835617
621.000000	72.841855
619.500000	72.841263
618.000000	72.777766
616.500000	72.744982
615.000000	72.751566
613.500000	72.698577
612.000000	72.683106
610.500000	72.666870
609.000000	72.665192
607.500000	72.615326
606.000000	72.598121
604.500000	72.627229
603.000000	72.642122
601.500000	72.586958
600.000000	72.540750
598.500000	72.551898
597.000000	72.498007
595.500000	72.487248
594.000000	72.437039
592.500000	72.442526
591.000000	72.499121
589.500000	72.453553
588.000000	72.390830
586.500000	72.392473
585.000000	72.367640
583.500000	72.335143
582.000000	72.313571
580.500000	72.273034
579.000000	72.265901
577.500000	72.220292
576.000000	72.205627
574.500000	72.211983
573.000000	72.164930
571.500000	72.111295
570.000000	72.061465
568.500000	72.038570
567.000000	72.066667
565.500000	72.020778
564.000000	71.882476
562.500000	71.884391
561.000000	72.077910
559.500000	72.172519
558.000000	72.121315
556.500000	72.099411
555.000000	72.084794
553.500000	72.047086
552.000000	72.031922
550.500000	71.994758
549.000000	71.958705
547.500000	71.978949
546.000000	71.957575
544.500000	71.921920
543.000000	71.926598
541.500000	71.893495
540.000000	71.870018
538.500000	71.846262
537.000000	71.827230
535.500000	71.828072
534.000000	71.852721
532.500000	71.849040
531.000000	71.798832
529.500000	71.779552
528.000000	71.748974
526.500000	71.705988
525.000000	71.668068
523.500000	71.615762
522.000000	71.582192
520.500000	71.480046
519.000000	71.355635
517.500000	71.241183
516.000000	71.091453
514.500000	70.933545
513.000000	70.732316
511.500000	70.489850
510.000000	70.220937
508.500000	69.985990
507.000000	69.808436
505.500000	69.657782
504.000000	69.542997
502.500000	69.446881
501.000000	69.465791
499.500000	69.540955
498.000000	69.616688
496.500000	69.696847
495.000000	69.799792
493.500000	69.937936
492.000000	70.106200
490.500000	70.300249
489.000000	70.376089
487.500000	70.502942
486.000000	70.654782
484.500000	70.855996
483.000000	71.061149
481.500000	71.377676
480.000000	71.461075
478.500000	71.175567
477.000000	70.885351
475.500000	70.710434
474.000000	70.593941
472.500000	70.509029
471.000000	70.328178
469.500000	70.087404
468.000000	69.836896
466.500000	69.595500
465.000000	69.322025
463.500000	69.124617
462.000000	68.936484
460.500000	68.798050
459.000000	68.743828
457.500000	68.681595
456.000000	68.619981
454.500000	68.577355
453.000000	68.648255
451.500000	68.686476
450.000000	68.705420
448.500000	68.775324
447.000000	68.765925
445.500000	68.782900
444.000000	69.051262
442.500000	69.230304
441.000000	69.100406
439.500000	68.991372
438.000000	68.963705
436.500000	68.852902
435.000000	68.781883
433.500000	68.722034
432.000000	68.638228
430.500000	68.491622
429.000000	68.425070
427.500000	68.336493
426.000000	68.330424
424.500000	68.262360
423.000000	68.209800
421.500000	68.152516
420.000000	68.012704
418.500000	67.904191
417.000000	67.840501
415.500000	67.779966
414.000000	67.695593
412.500000	67.572594
411.000000	67.482895
409.500000	67.443158
408.000000	67.354882
406.500000	67.236386
405.000000	67.063646
403.500000	66.959682
402.000000	66.917956
400.500000	66.821199
399.000000	66.690746
397.500000	66.623007
396.000000	66.423471
394.500000	66.291527
393.000000	66.127928
391.500000	65.987370
390.000000	65.858424
388.500000	65.626717
387.000000	65.499505
385.500000	65.236705
384.000000	65.079856
382.500000	64.740698
381.000000	64.446297
379.500000	64.154609
378.000000	63.845208
376.500000	64.217192
375.000000	64.337962
373.500000	63.174162
372.000000	62.040210
370.500000	60.809376
369.000000	59.464074
367.500000	57.734896
366.000000	55.798972
364.500000	53.383998
363.000000	50.587392
361.500000	47.296545
360.000000	43.515271
358.500000	39.119272
357.000000	34.383810
355.500000	29.135368
354.000000	23.779703
352.500000	18.496749
351.000000	13.623099
349.500000	9.474269
348.000000	6.155912
346.500000	3.744684
345.000000	2.140977
343.500000	1.153343
342.000000	0.567043
340.500000	0.256688
339.000000	0.054640
337.500000	-0.030084
336.000000	-0.040475
334.500000	-0.040955
333.000000	-0.041341
331.500000	-0.038439
330.000000	-0.033622
328.500000	-0.038499
327.000000	-0.035963
325.500000	-0.047215
324.000000	-0.044625
322.500000	-0.040831
321.000000	-0.045963
319.500000	-0.031536
318.000000	0.005268
316.500000	-0.022836
315.000000	-0.026497
313.500000	-0.025219
312.000000	-0.027300
310.500000	-0.023836
309.000000	-0.023570
307.500000	-0.018919
306.000000	-0.017248
304.500000	-0.019088
303.000000	-0.019752
301.500000	-0.024712
300.000000	-0.020843
