PE UV       SUBTECH     SPECTRUM    ASCII       PEDS        4.00        
   -1
Sample259.Sample.Raw.asc
21/02/11
11:26:24.00
21/02/11
11:26:24.00
Administrator

300.000000
1
Lambda 850
850L1710193
PerkinElmer UV WinLab 6.4.0.973 / 2.02.06 Lambda 800 UV/VIS, Jan 28 2016 16:58:34

0
0
2
0
0
UV/VIS
1
1
1
RBeamAtt,SBeamAtt,60mm sphere
0
0
0
0
Fix
 
0
0.2
0
0
0
 
 
 
0
 
0
319.2
0
Front
100
 
S:100 R:100
 
0
0
0
 
0
 
 
 
0
 
 
0
0
0
0
0
 
 
 
 
0
0


0
0
#HDR
-1
-1
#GR
nm
%T
1.0
0.0
750.000000
-1.500000
301
8
72.870189
-0.027627
#DATA
750.000000	72.563673
748.500000	72.761890
747.000000	72.669601
745.500000	72.766300
744.000000	72.870189
742.500000	72.762343
741.000000	72.583742
739.500000	72.599607
738.000000	72.576446
736.500000	72.571607
735.000000	72.599202
733.500000	72.313112
732.000000	72.417888
730.500000	72.281865
729.000000	72.366452
727.500000	72.308890
726.000000	72.370730
724.500000	72.334920
723.000000	72.253740
721.500000	72.313440
720.000000	72.035114
718.500000	72.039575
717.000000	71.955893
715.500000	71.899772
714.000000	71.932096
712.500000	71.884496
711.000000	71.934751
709.500000	71.784588
708.000000	71.832221
706.500000	71.831335
705.000000	71.717654
703.500000	71.787780
702.000000	71.691404
700.500000	71.703581
699.000000	71.675722
697.500000	71.689712
696.000000	71.551976
694.500000	71.522585
693.000000	71.485711
691.500000	71.300370
690.000000	71.183617
688.500000	71.233824
687.000000	71.280279
685.500000	71.271160
684.000000	71.117356
682.500000	71.079120
681.000000	70.981278
679.500000	70.915759
678.000000	70.914152
676.500000	70.896785
675.000000	70.767065
673.500000	70.752325
672.000000	70.635727
670.500000	70.510125
669.000000	70.398957
667.500000	70.364077
666.000000	70.154352
664.500000	70.173205
663.000000	70.064893
661.500000	69.962594
660.000000	69.870269
658.500000	69.747365
657.000000	69.686785
655.500000	69.539937
654.000000	69.485807
652.500000	69.381394
651.000000	69.228694
649.500000	69.127769
648.000000	69.045460
646.500000	68.842239
645.000000	68.672157
643.500000	68.566876
642.000000	68.407895
640.500000	68.243538
639.000000	68.155906
637.500000	68.083132
636.000000	67.879573
634.500000	67.786737
633.000000	67.642321
631.500000	67.541084
630.000000	67.323070
628.500000	67.118305
627.000000	66.951481
625.500000	66.827771
624.000000	66.695062
622.500000	66.475864
621.000000	66.328391
619.500000	66.149465
618.000000	65.965347
616.500000	65.804821
615.000000	65.643281
613.500000	65.470238
612.000000	65.292952
610.500000	65.109711
609.000000	64.960311
607.500000	64.811301
606.000000	64.596314
604.500000	64.416872
603.000000	64.251741
601.500000	64.057520
600.000000	63.903056
598.500000	63.696924
597.000000	63.497816
595.500000	63.331525
594.000000	63.156557
592.500000	63.010170
591.000000	62.809470
589.500000	62.616480
588.000000	62.445767
586.500000	62.282612
585.000000	62.091841
583.500000	61.903117
582.000000	61.721116
580.500000	61.528234
579.000000	61.347616
577.500000	61.165252
576.000000	61.011301
574.500000	60.830576
573.000000	60.638424
571.500000	60.485513
570.000000	60.301250
568.500000	60.091642
567.000000	59.918517
565.500000	59.723213
564.000000	59.534663
562.500000	59.414088
561.000000	59.394841
559.500000	59.344161
558.000000	59.197907
556.500000	59.030460
555.000000	58.885034
553.500000	58.759861
552.000000	58.579239
550.500000	58.415697
549.000000	58.285332
547.500000	58.162954
546.000000	58.006141
544.500000	57.860499
543.000000	57.756266
541.500000	57.624950
540.000000	57.488104
538.500000	57.375901
537.000000	57.270787
535.500000	57.156579
534.000000	57.038634
532.500000	56.957144
531.000000	56.856944
529.500000	56.714480
528.000000	56.587879
526.500000	56.472554
525.000000	56.363154
523.500000	56.211139
522.000000	56.047795
520.500000	55.883957
519.000000	55.707190
517.500000	55.499486
516.000000	55.245707
514.500000	54.972528
513.000000	54.653284
511.500000	54.330874
510.000000	53.985667
508.500000	53.634148
507.000000	53.303594
505.500000	52.947997
504.000000	52.602538
502.500000	52.315523
501.000000	52.067976
499.500000	51.827764
498.000000	51.585023
496.500000	51.375763
495.000000	51.208683
493.500000	51.059230
492.000000	50.953129
490.500000	50.872264
489.000000	50.810206
487.500000	50.796397
486.000000	50.787805
484.500000	50.906965
483.000000	51.139195
481.500000	51.428097
480.000000	51.549854
478.500000	51.421723
477.000000	51.190374
475.500000	51.078164
474.000000	50.976188
472.500000	50.809495
471.000000	50.621573
469.500000	50.403783
468.000000	50.116632
466.500000	49.836170
465.000000	49.557799
463.500000	49.268133
462.000000	48.974693
460.500000	48.720511
459.000000	48.437068
457.500000	48.260169
456.000000	48.054407
454.500000	47.862274
453.000000	47.708272
451.500000	47.554357
450.000000	47.385392
448.500000	47.271853
447.000000	47.092360
445.500000	46.936454
444.000000	47.046150
442.500000	47.058923
441.000000	46.904890
439.500000	46.753384
438.000000	46.624577
436.500000	46.478747
435.000000	46.351566
433.500000	46.211937
432.000000	46.123502
430.500000	45.965201
429.000000	45.901013
427.500000	45.730856
426.000000	45.638938
424.500000	45.508163
423.000000	45.391900
421.500000	45.292223
420.000000	45.242054
418.500000	45.101857
417.000000	44.956573
415.500000	44.890058
414.000000	44.780427
412.500000	44.693479
411.000000	44.598937
409.500000	44.463645
408.000000	44.368578
406.500000	44.244012
405.000000	44.168868
403.500000	44.073330
402.000000	44.011401
400.500000	43.900875
399.000000	43.838327
397.500000	43.696324
396.000000	43.638765
394.500000	43.532565
393.000000	43.446158
391.500000	43.385638
390.000000	43.333440
388.500000	43.232342
387.000000	43.123055
385.500000	43.086623
384.000000	42.888148
382.500000	42.816158
381.000000	42.691254
379.500000	42.502818
378.000000	42.443741
376.500000	42.764809
375.000000	42.969602
373.500000	42.506251
372.000000	42.014194
370.500000	41.402979
369.000000	40.820870
367.500000	40.041401
366.000000	39.211091
364.500000	38.201746
363.000000	36.954074
361.500000	35.442238
360.000000	33.637820
358.500000	31.475493
357.000000	28.934877
355.500000	26.003811
354.000000	22.836398
352.500000	19.414928
351.000000	15.927905
349.500000	12.439629
348.000000	9.245150
346.500000	6.394944
345.000000	4.078128
343.500000	2.352028
342.000000	1.215544
340.500000	0.539053
339.000000	0.220497
337.500000	0.090145
336.000000	0.050120
334.500000	0.043644
333.000000	0.032238
331.500000	0.042232
330.000000	0.047198
328.500000	0.042251
327.000000	0.048054
325.500000	0.051702
324.000000	0.049149
322.500000	0.052382
321.000000	0.045418
319.500000	0.045334
318.000000	0.004718
316.500000	-0.024591
315.000000	-0.027627
313.500000	-0.020857
312.000000	-0.024545
310.500000	-0.019943
309.000000	-0.014486
307.500000	-0.010630
306.000000	-0.007602
304.500000	-0.003332
303.000000	-0.007048
301.500000	-0.009248
300.000000	-0.013457
