PE UV       SUBTECH     SPECTRUM    ASCII       PEDS        4.00        
   -1
Sample49.Sample.Raw.asc
21/02/09
14:51:57.00
21/02/09
14:51:57.00
Administrator

300.000000
1
Lambda 850
850L1710193
PerkinElmer UV WinLab 6.4.0.973 / 2.02.06 Lambda 800 UV/VIS, Jan 28 2016 16:58:34

0
0
2
0
0
UV/VIS
1
1
1
RBeamAtt,SBeamAtt,60mm sphere
0
0
0
0
Fix
 
0
0.2
0
0
0
 
 
 
0
 
0
340
0
Front
100
 
S:100 R:100
 
0
0
0
 
0
 
 
 
0
 
 
0
0
0
0
0
 
 
 
 
0
0


0
0
#HDR
-1
-1
#GR
nm
%T
1.0
0.0
750.000000
-0.100000
4501
8
74.130770
-0.023203
#DATA
750.000000	73.844154
749.900000	73.842595
749.800000	73.939358
749.700000	73.944086
749.600000	73.924020
749.500000	73.982559
749.400000	73.948343
749.300000	73.944409
749.200000	73.836929
749.100000	73.935898
749.000000	74.130770
748.900000	73.923694
748.800000	74.051977
748.700000	73.904925
748.600000	73.921089
748.500000	73.875153
748.400000	74.055062
748.300000	73.839176
748.200000	73.892640
748.100000	73.916457
748.000000	73.874186
747.900000	73.939393
747.800000	73.847244
747.700000	73.961860
747.600000	73.881818
747.500000	73.773047
747.400000	73.950280
747.300000	73.807271
747.200000	73.863669
747.100000	73.879992
747.000000	73.934608
746.900000	73.919556
746.800000	73.880357
746.700000	74.003066
746.600000	74.046910
746.500000	73.870989
746.400000	73.874075
746.300000	73.961907
746.200000	73.791520
746.100000	73.870128
746.000000	73.904347
745.900000	73.963659
745.800000	73.922040
745.700000	73.980647
745.600000	74.029708
745.500000	73.966755
745.400000	73.795674
745.300000	73.961579
745.200000	73.976018
745.100000	73.991007
745.000000	73.900463
744.900000	73.946178
744.800000	73.925696
744.700000	74.022352
744.600000	73.928741
744.500000	73.971662
744.400000	73.977151
744.300000	73.969771
744.200000	73.846022
744.100000	73.864193
744.000000	74.010649
743.900000	73.975118
743.800000	73.896345
743.700000	73.884866
743.600000	73.920103
743.500000	73.899984
743.400000	73.820235
743.300000	73.899926
743.200000	73.893061
743.100000	73.841130
743.000000	73.927654
742.900000	73.966682
742.800000	73.906288
742.700000	73.845152
742.600000	73.814723
742.500000	73.812165
742.400000	73.943169
742.300000	73.893529
742.200000	73.936652
742.100000	73.926860
742.000000	73.952050
741.900000	73.947477
741.800000	73.828251
741.700000	73.923217
741.600000	73.942220
741.500000	73.793755
741.400000	73.778148
741.300000	73.843192
741.200000	73.840215
741.100000	73.972080
741.000000	73.992223
740.900000	73.845126
740.800000	73.871469
740.700000	73.988333
740.600000	73.970318
740.500000	73.995808
740.400000	73.975512
740.300000	73.893868
740.200000	73.890714
740.100000	73.876780
740.000000	73.827811
739.900000	73.832928
739.800000	73.897342
739.700000	73.947833
739.600000	73.910667
739.500000	73.886408
739.400000	73.840206
739.300000	73.820917
739.200000	73.840621
739.100000	73.853031
739.000000	73.869016
738.900000	73.876581
738.800000	73.847180
738.700000	73.823925
738.600000	73.816529
738.500000	73.832435
738.400000	73.894546
738.300000	73.940862
738.200000	73.893529
738.100000	73.896385
738.000000	73.916737
737.900000	73.895432
737.800000	73.810818
737.700000	73.825002
737.600000	73.853259
737.500000	73.762419
737.400000	73.730203
737.300000	73.864312
737.200000	73.892050
737.100000	73.824629
737.000000	73.833433
736.900000	73.859890
736.800000	73.848290
736.700000	73.800082
736.600000	73.753325
736.500000	73.791625
736.400000	73.780852
736.300000	73.900827
736.200000	73.940115
736.100000	73.859369
736.000000	73.901162
735.900000	73.901575
735.800000	73.892342
735.700000	73.884583
735.600000	73.838275
735.500000	73.819370
735.400000	73.841936
735.300000	73.820400
735.200000	73.769469
735.100000	73.815554
735.000000	73.890042
734.900000	73.863194
734.800000	73.854930
734.700000	73.843207
734.600000	73.823516
734.500000	73.908131
734.400000	73.935470
734.300000	73.832326
734.200000	73.812175
734.100000	73.772669
734.000000	73.845685
733.900000	73.920097
733.800000	73.936214
733.700000	73.898047
733.600000	73.874138
733.500000	73.786130
733.400000	73.770815
733.300000	73.736548
733.200000	73.751215
733.100000	73.845469
733.000000	73.846299
732.900000	73.824727
732.800000	73.831774
732.700000	73.798435
732.600000	73.717089
732.500000	73.866786
732.400000	73.901206
732.300000	73.830304
732.200000	73.861190
732.100000	73.845586
732.000000	73.872499
731.900000	73.790153
731.800000	73.913768
731.700000	73.878841
731.600000	73.878577
731.500000	73.910510
731.400000	74.033454
731.300000	73.888419
731.200000	73.875635
731.100000	73.935058
731.000000	73.853863
730.900000	73.749482
730.800000	73.760342
730.700000	73.756249
730.600000	73.740843
730.500000	73.785239
730.400000	73.764859
730.300000	73.756181
730.200000	73.757903
730.100000	73.848811
730.000000	73.897419
729.900000	73.892071
729.800000	73.843617
729.700000	73.927629
729.600000	73.890660
729.500000	73.926241
729.400000	73.927674
729.300000	73.886077
729.200000	73.877636
729.100000	73.841036
729.000000	73.728634
728.900000	73.735406
728.800000	73.803571
728.700000	73.867156
728.600000	73.757566
728.500000	73.798824
728.400000	73.717543
728.300000	73.761700
728.200000	73.811042
728.100000	73.772591
728.000000	73.854803
727.900000	73.893362
727.800000	73.796281
727.700000	73.811239
727.600000	73.743353
727.500000	73.694744
727.400000	73.728739
727.300000	73.842710
727.200000	73.953776
727.100000	73.915823
727.000000	73.883985
726.900000	73.814488
726.800000	73.828222
726.700000	73.864243
726.600000	73.808406
726.500000	73.644675
726.400000	73.760025
726.300000	73.927859
726.200000	73.698721
726.100000	73.726839
726.000000	73.818554
725.900000	73.862839
725.800000	73.786110
725.700000	73.862092
725.600000	73.844457
725.500000	73.892340
725.400000	73.838984
725.300000	73.849128
725.200000	73.781348
725.100000	74.002727
725.000000	73.761572
724.900000	73.834446
724.800000	73.757470
724.700000	73.833725
724.600000	73.712168
724.500000	73.743394
724.400000	73.818757
724.300000	73.812590
724.200000	73.873740
724.100000	73.790806
724.000000	73.817452
723.900000	73.879194
723.800000	73.830939
723.700000	73.767034
723.600000	73.832121
723.500000	73.777975
723.400000	73.911900
723.300000	73.958822
723.200000	73.718250
723.100000	73.939794
723.000000	73.920682
722.900000	73.735561
722.800000	73.904520
722.700000	73.636126
722.600000	73.803369
722.500000	73.819416
722.400000	73.819695
722.300000	73.845228
722.200000	73.712798
722.100000	73.606399
722.000000	73.834600
721.900000	73.761876
721.800000	73.696295
721.700000	73.683894
721.600000	73.790471
721.500000	73.791882
721.400000	73.710171
721.300000	73.821252
721.200000	73.837281
721.100000	73.756768
721.000000	73.819589
720.900000	73.687283
720.800000	73.742690
720.700000	73.837730
720.600000	73.900399
720.500000	73.748044
720.400000	73.621122
720.300000	73.704178
720.200000	73.753613
720.100000	73.808463
720.000000	73.870965
719.900000	73.760133
719.800000	73.804349
719.700000	73.790742
719.600000	73.791674
719.500000	73.918472
719.400000	73.826009
719.300000	73.770440
719.200000	73.828679
719.100000	73.830119
719.000000	73.734651
718.900000	73.729965
718.800000	73.725139
718.700000	73.709419
718.600000	73.792597
718.500000	73.871321
718.400000	73.763032
718.300000	73.710436
718.200000	73.727261
718.100000	73.756228
718.000000	73.725324
717.900000	73.726613
717.800000	73.794276
717.700000	73.738740
717.600000	73.694581
717.500000	73.780084
717.400000	73.754941
717.300000	73.766523
717.200000	73.897639
717.100000	73.820883
717.000000	73.703905
716.900000	73.718760
716.800000	73.758054
716.700000	73.680374
716.600000	73.751338
716.500000	73.808670
716.400000	73.750481
716.300000	73.739267
716.200000	73.662676
716.100000	73.661386
716.000000	73.820204
715.900000	73.767797
715.800000	73.700482
715.700000	73.704568
715.600000	73.708676
715.500000	73.744397
715.400000	73.740919
715.300000	73.741689
715.200000	73.785340
715.100000	73.763709
715.000000	73.729567
714.900000	73.734162
714.800000	73.704142
714.700000	73.723596
714.600000	73.797052
714.500000	73.767392
714.400000	73.691093
714.300000	73.651460
714.200000	73.688592
714.100000	73.712622
714.000000	73.760810
713.900000	73.779847
713.800000	73.763109
713.700000	73.759043
713.600000	73.771167
713.500000	73.826230
713.400000	73.858591
713.300000	73.755455
713.200000	73.606252
713.100000	73.668851
713.000000	73.736081
712.900000	73.721395
712.800000	73.708879
712.700000	73.705277
712.600000	73.750528
712.500000	73.766381
712.400000	73.788259
712.300000	73.776255
712.200000	73.756270
712.100000	73.836159
712.000000	73.820413
711.900000	73.757435
711.800000	73.747008
711.700000	73.741243
711.600000	73.752885
711.500000	73.751419
711.400000	73.704246
711.300000	73.686004
711.200000	73.687056
711.100000	73.653748
711.000000	73.700115
710.900000	73.727544
710.800000	73.784013
710.700000	73.783435
710.600000	73.634904
710.500000	73.627200
710.400000	73.742890
710.300000	73.750713
710.200000	73.720264
710.100000	73.715091
710.000000	73.693833
709.900000	73.609030
709.800000	73.564831
709.700000	73.615564
709.600000	73.763700
709.500000	73.734240
709.400000	73.706199
709.300000	73.680138
709.200000	73.703517
709.100000	73.694007
709.000000	73.701876
708.900000	73.719196
708.800000	73.739940
708.700000	73.721118
708.600000	73.709725
708.500000	73.614462
708.400000	73.654428
708.300000	73.675422
708.200000	73.625590
708.100000	73.627270
708.000000	73.607991
707.900000	73.603281
707.800000	73.571684
707.700000	73.603013
707.600000	73.609672
707.500000	73.627093
707.400000	73.650260
707.300000	73.758654
707.200000	73.746823
707.100000	73.717290
707.000000	73.648119
706.900000	73.646062
706.800000	73.663901
706.700000	73.676880
706.600000	73.693343
706.500000	73.610751
706.400000	73.624045
706.300000	73.686749
706.200000	73.676466
706.100000	73.687017
706.000000	73.625830
705.900000	73.617563
705.800000	73.659690
705.700000	73.719172
705.600000	73.666089
705.500000	73.635837
705.400000	73.634977
705.300000	73.588919
705.200000	73.714405
705.100000	73.660981
705.000000	73.675628
704.900000	73.634537
704.800000	73.630910
704.700000	73.604919
704.600000	73.609852
704.500000	73.661274
704.400000	73.685479
704.300000	73.590295
704.200000	73.639700
704.100000	73.653781
704.000000	73.668702
703.900000	73.612597
703.800000	73.627715
703.700000	73.711463
703.600000	73.608826
703.500000	73.724838
703.400000	73.703128
703.300000	73.700855
703.200000	73.750879
703.100000	73.701403
703.000000	73.648946
702.900000	73.707854
702.800000	73.713364
702.700000	73.578200
702.600000	73.571550
702.500000	73.601702
702.400000	73.643910
702.300000	73.716012
702.200000	73.636217
702.100000	73.595231
702.000000	73.625212
701.900000	73.609119
701.800000	73.637212
701.700000	73.740107
701.600000	73.564470
701.500000	73.673534
701.400000	73.702801
701.300000	73.544109
701.200000	73.646069
701.100000	73.683784
701.000000	73.676204
700.900000	73.617684
700.800000	73.487048
700.700000	73.663471
700.600000	73.670649
700.500000	73.661081
700.400000	73.712973
700.300000	73.683418
700.200000	73.623036
700.100000	73.735642
700.000000	73.671172
699.900000	73.641754
699.800000	73.561300
699.700000	73.727963
699.600000	73.598667
699.500000	73.539629
699.400000	73.619784
699.300000	73.642198
699.200000	73.686799
699.100000	73.541236
699.000000	73.571795
698.900000	73.653309
698.800000	73.608628
698.700000	73.631053
698.600000	73.695414
698.500000	73.653516
698.400000	73.556363
698.300000	73.668381
698.200000	73.592269
698.100000	73.631490
698.000000	73.656779
697.900000	73.570072
697.800000	73.590294
697.700000	73.685980
697.600000	73.626344
697.500000	73.604988
697.400000	73.661320
697.300000	73.621613
697.200000	73.577817
697.100000	73.535479
697.000000	73.574725
696.900000	73.620356
696.800000	73.666084
696.700000	73.667109
696.600000	73.658608
696.500000	73.553999
696.400000	73.552065
696.300000	73.532126
696.200000	73.548074
696.100000	73.584751
696.000000	73.540653
695.900000	73.529525
695.800000	73.600228
695.700000	73.652097
695.600000	73.570593
695.500000	73.651889
695.400000	73.790406
695.300000	73.651321
695.200000	73.574942
695.100000	73.560051
695.000000	73.527265
694.900000	73.595498
694.800000	73.610153
694.700000	73.603557
694.600000	73.531621
694.500000	73.627084
694.400000	73.605854
694.300000	73.658379
694.200000	73.714497
694.100000	73.714909
694.000000	73.674644
693.900000	73.587656
693.800000	73.578746
693.700000	73.530695
693.600000	73.596506
693.500000	73.556148
693.400000	73.569269
693.300000	73.533640
693.200000	73.600799
693.100000	73.596680
693.000000	73.683137
692.900000	73.629340
692.800000	73.580778
692.700000	73.600544
692.600000	73.550865
692.500000	73.583564
692.400000	73.531842
692.300000	73.581500
692.200000	73.560118
692.100000	73.476828
692.000000	73.441351
691.900000	73.565687
691.800000	73.661055
691.700000	73.576445
691.600000	73.526821
691.500000	73.478835
691.400000	73.564087
691.300000	73.580710
691.200000	73.565552
691.100000	73.564113
691.000000	73.523265
690.900000	73.496675
690.800000	73.544629
690.700000	73.591598
690.600000	73.563047
690.500000	73.571835
690.400000	73.576603
690.300000	73.533889
690.200000	73.604840
690.100000	73.702019
690.000000	73.582985
689.900000	73.500552
689.800000	73.510933
689.700000	73.556786
689.600000	73.521376
689.500000	73.617037
689.400000	73.549625
689.300000	73.548623
689.200000	73.557880
689.100000	73.574600
689.000000	73.628694
688.900000	73.564258
688.800000	73.537115
688.700000	73.515700
688.600000	73.524869
688.500000	73.528619
688.400000	73.585496
688.300000	73.602731
688.200000	73.580412
688.100000	73.622359
688.000000	73.610345
687.900000	73.539277
687.800000	73.505686
687.700000	73.556479
687.600000	73.587210
687.500000	73.622109
687.400000	73.559117
687.300000	73.532703
687.200000	73.592477
687.100000	73.585944
687.000000	73.560409
686.900000	73.623768
686.800000	73.653638
686.700000	73.644252
686.600000	73.640755
686.500000	73.583540
686.400000	73.563980
686.300000	73.617917
686.200000	73.577044
686.100000	73.554340
686.000000	73.584200
685.900000	73.527644
685.800000	73.510064
685.700000	73.522856
685.600000	73.499023
685.500000	73.569221
685.400000	73.556937
685.300000	73.547368
685.200000	73.541519
685.100000	73.511539
685.000000	73.484494
684.900000	73.440606
684.800000	73.476761
684.700000	73.526753
684.600000	73.543014
684.500000	73.527549
684.400000	73.527837
684.300000	73.524544
684.200000	73.547853
684.100000	73.529489
684.000000	73.514977
683.900000	73.562425
683.800000	73.554657
683.700000	73.516205
683.600000	73.470366
683.500000	73.472071
683.400000	73.517169
683.300000	73.541355
683.200000	73.493085
683.100000	73.486574
683.000000	73.528611
682.900000	73.507069
682.800000	73.455524
682.700000	73.450143
682.600000	73.513179
682.500000	73.530727
682.400000	73.440055
682.300000	73.385077
682.200000	73.400208
682.100000	73.444778
682.000000	73.447352
681.900000	73.443115
681.800000	73.567694
681.700000	73.628349
681.600000	73.538898
681.500000	73.474409
681.400000	73.478898
681.300000	73.445587
681.200000	73.457696
681.100000	73.503721
681.000000	73.565248
680.900000	73.628390
680.800000	73.580621
680.700000	73.575496
680.600000	73.636087
680.500000	73.509085
680.400000	73.496890
680.300000	73.447810
680.200000	73.503758
680.100000	73.483634
680.000000	73.490837
679.900000	73.542716
679.800000	73.484501
679.700000	73.484116
679.600000	73.488458
679.500000	73.510614
679.400000	73.499816
679.300000	73.534556
679.200000	73.530808
679.100000	73.475453
679.000000	73.519509
678.900000	73.517331
678.800000	73.593339
678.700000	73.546217
678.600000	73.387002
678.500000	73.410343
678.400000	73.496477
678.300000	73.494278
678.200000	73.430532
678.100000	73.494702
678.000000	73.544466
677.900000	73.486029
677.800000	73.446965
677.700000	73.525677
677.600000	73.491237
677.500000	73.477555
677.400000	73.425210
677.300000	73.416468
677.200000	73.475608
677.100000	73.438962
677.000000	73.477232
676.900000	73.530922
676.800000	73.459606
676.700000	73.504963
676.600000	73.510498
676.500000	73.454275
676.400000	73.393761
676.300000	73.419723
676.200000	73.354215
676.100000	73.349316
676.000000	73.459650
675.900000	73.474329
675.800000	73.397122
675.700000	73.450435
675.600000	73.417279
675.500000	73.425612
675.400000	73.512065
675.300000	73.482633
675.200000	73.535794
675.100000	73.517903
675.000000	73.487789
674.900000	73.464505
674.800000	73.449356
674.700000	73.479976
674.600000	73.560872
674.500000	73.570117
674.400000	73.399581
674.300000	73.522830
674.200000	73.501216
674.100000	73.551240
674.000000	73.487954
673.900000	73.478204
673.800000	73.452310
673.700000	73.447472
673.600000	73.478328
673.500000	73.455514
673.400000	73.420032
673.300000	73.547196
673.200000	73.459739
673.100000	73.393894
673.000000	73.381401
672.900000	73.492799
672.800000	73.486461
672.700000	73.466578
672.600000	73.386683
672.500000	73.499736
672.400000	73.487308
672.300000	73.441110
672.200000	73.466842
672.100000	73.423756
672.000000	73.397618
671.900000	73.398961
671.800000	73.520040
671.700000	73.382604
671.600000	73.418089
671.500000	73.504630
671.400000	73.398814
671.300000	73.444601
671.200000	73.536055
671.100000	73.430638
671.000000	73.463965
670.900000	73.325495
670.800000	73.419159
670.700000	73.403403
670.600000	73.470257
670.500000	73.467256
670.400000	73.441068
670.300000	73.374504
670.200000	73.381885
670.100000	73.371266
670.000000	73.422505
669.900000	73.450585
669.800000	73.453351
669.700000	73.453968
669.600000	73.354851
669.500000	73.408946
669.400000	73.406548
669.300000	73.390105
669.200000	73.399942
669.100000	73.336320
669.000000	73.349016
668.900000	73.381900
668.800000	73.437011
668.700000	73.371739
668.600000	73.367421
668.500000	73.414714
668.400000	73.370353
668.300000	73.463887
668.200000	73.394247
668.100000	73.414055
668.000000	73.455889
667.900000	73.375614
667.800000	73.351506
667.700000	73.390424
667.600000	73.408681
667.500000	73.474806
667.400000	73.403182
667.300000	73.420487
667.200000	73.449367
667.100000	73.397500
667.000000	73.448250
666.900000	73.417841
666.800000	73.342130
666.700000	73.444015
666.600000	73.424317
666.500000	73.369964
666.400000	73.392884
666.300000	73.425506
666.200000	73.365235
666.100000	73.417964
666.000000	73.353407
665.900000	73.331310
665.800000	73.412952
665.700000	73.434577
665.600000	73.326015
665.500000	73.461635
665.400000	73.464108
665.300000	73.387429
665.200000	73.371995
665.100000	73.353074
665.000000	73.350755
664.900000	73.375191
664.800000	73.335586
664.700000	73.376753
664.600000	73.381364
664.500000	73.367200
664.400000	73.421019
664.300000	73.390303
664.200000	73.336141
664.100000	73.378068
664.000000	73.349675
663.900000	73.410147
663.800000	73.404566
663.700000	73.398909
663.600000	73.354949
663.500000	73.314264
663.400000	73.358809
663.300000	73.396863
663.200000	73.395451
663.100000	73.358466
663.000000	73.391809
662.900000	73.376569
662.800000	73.373349
662.700000	73.325498
662.600000	73.270708
662.500000	73.331645
662.400000	73.355717
662.300000	73.326240
662.200000	73.316179
662.100000	73.352765
662.000000	73.327499
661.900000	73.310165
661.800000	73.338693
661.700000	73.384389
661.600000	73.385086
661.500000	73.378073
661.400000	73.311385
661.300000	73.337822
661.200000	73.365855
661.100000	73.352437
661.000000	73.326349
660.900000	73.316850
660.800000	73.328797
660.700000	73.336307
660.600000	73.381532
660.500000	73.388511
660.400000	73.355548
660.300000	73.303835
660.200000	73.308673
660.100000	73.335923
660.000000	73.365747
659.900000	73.357248
659.800000	73.352989
659.700000	73.350012
659.600000	73.317982
659.500000	73.319986
659.400000	73.391592
659.300000	73.409019
659.200000	73.367250
659.100000	73.335228
659.000000	73.314914
658.900000	73.327691
658.800000	73.343295
658.700000	73.327962
658.600000	73.321445
658.500000	73.312337
658.400000	73.336330
658.300000	73.387226
658.200000	73.367677
658.100000	73.351371
658.000000	73.316249
657.900000	73.302783
657.800000	73.319189
657.700000	73.318945
657.600000	73.319890
657.500000	73.309724
657.400000	73.277143
657.300000	73.307310
657.200000	73.315329
657.100000	73.285065
657.000000	73.276551
656.900000	73.284116
656.800000	73.316318
656.700000	73.277835
656.600000	73.249058
656.500000	73.293148
656.400000	73.331588
656.300000	73.290184
656.200000	73.307795
656.100000	73.374243
656.000000	73.371879
655.900000	73.356697
655.800000	73.314375
655.700000	73.269192
655.600000	73.284395
655.500000	73.258231
655.400000	73.311835
655.300000	73.321804
655.200000	73.270022
655.100000	73.285456
655.000000	73.217578
654.900000	73.253340
654.800000	73.309774
654.700000	73.326553
654.600000	73.278957
654.500000	73.279599
654.400000	73.277298
654.300000	73.271440
654.200000	73.283473
654.100000	73.232836
654.000000	73.294282
653.900000	73.249845
653.800000	73.191820
653.700000	73.248226
653.600000	73.285857
653.500000	73.286019
653.400000	73.262459
653.300000	73.213046
653.200000	73.220875
653.100000	73.216840
653.000000	73.304081
652.900000	73.234070
652.800000	73.283217
652.700000	73.294041
652.600000	73.173015
652.500000	73.246485
652.400000	73.277332
652.300000	73.236365
652.200000	73.202736
652.100000	73.250896
652.000000	73.299327
651.900000	73.264223
651.800000	73.200259
651.700000	73.258227
651.600000	73.240345
651.500000	73.233399
651.400000	73.230520
651.300000	73.276886
651.200000	73.271082
651.100000	73.229630
651.000000	73.239419
650.900000	73.254696
650.800000	73.239582
650.700000	73.222126
650.600000	73.212934
650.500000	73.329408
650.400000	73.218143
650.300000	73.236433
650.200000	73.262206
650.100000	73.239014
650.000000	73.238105
649.900000	73.205444
649.800000	73.194894
649.700000	73.337557
649.600000	73.260443
649.500000	73.258756
649.400000	73.140589
649.300000	73.265794
649.200000	73.246670
649.100000	73.236300
649.000000	73.199842
648.900000	73.175074
648.800000	73.300224
648.700000	73.321848
648.600000	73.183832
648.500000	73.289712
648.400000	73.240419
648.300000	73.291676
648.200000	73.254034
648.100000	73.271342
648.000000	73.144243
647.900000	73.174200
647.800000	73.227791
647.700000	73.173737
647.600000	73.211113
647.500000	73.274672
647.400000	73.262165
647.300000	73.164403
647.200000	73.180939
647.100000	73.210008
647.000000	73.271140
646.900000	73.167013
646.800000	73.200654
646.700000	73.225450
646.600000	73.201399
646.500000	73.303989
646.400000	73.232050
646.300000	73.309657
646.200000	73.296405
646.100000	73.313196
646.000000	73.234947
645.900000	73.271154
645.800000	73.224804
645.700000	73.250850
645.600000	73.230473
645.500000	73.093905
645.400000	73.189746
645.300000	73.184367
645.200000	73.239939
645.100000	73.194841
645.000000	73.173016
644.900000	73.265870
644.800000	73.226263
644.700000	73.235781
644.600000	73.134485
644.500000	73.215793
644.400000	73.242958
644.300000	73.165610
644.200000	73.182669
644.100000	73.168250
644.000000	73.093664
643.900000	73.201482
643.800000	73.202384
643.700000	73.226528
643.600000	73.259349
643.500000	73.239717
643.400000	73.159368
643.300000	73.137177
643.200000	73.190117
643.100000	73.247347
643.000000	73.187647
642.900000	73.209495
642.800000	73.204740
642.700000	73.188226
642.600000	73.212844
642.500000	73.162398
642.400000	73.195072
642.300000	73.176397
642.200000	73.167663
642.100000	73.172290
642.000000	73.174510
641.900000	73.214541
641.800000	73.183040
641.700000	73.206157
641.600000	73.214284
641.500000	73.190365
641.400000	73.164566
641.300000	73.176957
641.200000	73.187989
641.100000	73.201739
641.000000	73.145629
640.900000	73.144604
640.800000	73.197320
640.700000	73.232842
640.600000	73.168315
640.500000	73.203102
640.400000	73.173600
640.300000	73.208127
640.200000	73.181976
640.100000	73.202624
640.000000	73.148247
639.900000	73.206125
639.800000	73.167829
639.700000	73.232660
639.600000	73.184254
639.500000	73.141773
639.400000	73.137205
639.300000	73.155972
639.200000	73.138957
639.100000	73.072969
639.000000	73.112892
638.900000	73.166792
638.800000	73.184199
638.700000	73.145784
638.600000	73.079931
638.500000	73.140871
638.400000	73.093914
638.300000	73.133257
638.200000	73.130790
638.100000	73.148849
638.000000	73.105358
637.900000	73.100819
637.800000	73.100536
637.700000	73.082739
637.600000	73.123061
637.500000	73.177041
637.400000	73.127421
637.300000	73.105466
637.200000	73.086994
637.100000	73.136572
637.000000	73.175234
636.900000	73.142742
636.800000	73.141185
636.700000	73.184797
636.600000	73.136930
636.500000	73.083796
636.400000	73.144923
636.300000	73.163170
636.200000	73.142070
636.100000	73.117570
636.000000	73.117255
635.900000	73.109312
635.800000	73.114669
635.700000	73.108337
635.600000	73.127802
635.500000	73.149569
635.400000	73.149125
635.300000	73.167605
635.200000	73.152513
635.100000	73.104090
635.000000	73.102122
634.900000	73.116325
634.800000	73.151789
634.700000	73.120446
634.600000	73.082236
634.500000	73.039140
634.400000	73.065668
634.300000	73.122044
634.200000	73.143423
634.100000	73.128142
634.000000	73.095020
633.900000	73.084700
633.800000	73.100869
633.700000	73.107400
633.600000	73.121054
633.500000	73.113701
633.400000	73.098737
633.300000	73.104609
633.200000	73.110847
633.100000	73.096273
633.000000	73.058119
632.900000	73.076009
632.800000	73.103213
632.700000	73.124464
632.600000	73.123109
632.500000	73.096731
632.400000	73.077663
632.300000	73.106314
632.200000	73.109065
632.100000	73.131514
632.000000	73.131693
631.900000	73.057276
631.800000	73.011670
631.700000	73.048772
631.600000	73.126600
631.500000	73.106986
631.400000	73.042755
631.300000	73.036841
631.200000	73.076891
631.100000	73.056928
631.000000	73.085107
630.900000	73.103128
630.800000	73.103702
630.700000	73.066425
630.600000	73.054018
630.500000	73.044552
630.400000	73.065851
630.300000	73.053065
630.200000	73.066331
630.100000	73.118413
630.000000	73.024690
629.900000	73.032449
629.800000	73.095676
629.700000	73.054208
629.600000	72.974430
629.500000	72.984619
629.400000	73.040140
629.300000	73.068472
629.200000	73.031561
629.100000	73.050258
629.000000	73.020024
628.900000	73.031973
628.800000	73.059564
628.700000	73.133445
628.600000	73.125289
628.500000	73.037416
628.400000	73.029036
628.300000	73.026791
628.200000	73.083608
628.100000	73.101845
628.000000	73.030805
627.900000	73.010172
627.800000	73.050518
627.700000	73.099198
627.600000	73.126824
627.500000	73.070065
627.400000	73.090634
627.300000	73.051623
627.200000	73.079850
627.100000	73.044857
627.000000	73.020868
626.900000	73.004968
626.800000	73.023212
626.700000	73.036991
626.600000	73.089897
626.500000	73.017379
626.400000	73.035083
626.300000	73.074521
626.200000	73.060994
626.100000	73.093215
626.000000	73.064175
625.900000	73.066404
625.800000	73.038538
625.700000	72.991196
625.600000	72.999542
625.500000	72.981797
625.400000	73.023698
625.300000	72.943032
625.200000	72.964014
625.100000	72.952176
625.000000	72.985892
624.900000	73.011399
624.800000	73.029818
624.700000	73.013975
624.600000	73.014371
624.500000	73.028228
624.400000	72.979626
624.300000	72.991098
624.200000	72.974374
624.100000	72.990021
624.000000	73.001284
623.900000	72.993237
623.800000	73.018268
623.700000	72.969037
623.600000	72.973261
623.500000	72.950841
623.400000	72.965663
623.300000	72.965828
623.200000	73.017756
623.100000	72.968683
623.000000	72.990043
622.900000	72.955487
622.800000	73.053126
622.700000	73.024148
622.600000	72.941643
622.500000	72.978338
622.400000	72.965219
622.300000	72.953934
622.200000	72.974264
622.100000	72.920055
622.000000	73.012311
621.900000	72.985713
621.800000	72.972665
621.700000	72.936115
621.600000	72.935466
621.500000	73.001124
621.400000	73.043125
621.300000	73.000871
621.200000	72.970847
621.100000	73.057204
621.000000	72.952961
620.900000	72.977225
620.800000	72.981897
620.700000	72.938937
620.600000	72.961130
620.500000	72.970756
620.400000	72.953696
620.300000	72.907524
620.200000	72.974159
620.100000	72.966032
620.000000	72.992483
619.900000	72.974986
619.800000	72.959149
619.700000	72.952141
619.600000	72.929311
619.500000	72.974050
619.400000	72.945428
619.300000	72.944139
619.200000	72.955074
619.100000	72.986868
619.000000	73.031878
618.900000	72.988437
618.800000	72.970296
618.700000	72.934584
618.600000	72.895621
618.500000	72.962226
618.400000	72.966320
618.300000	72.960924
618.200000	72.953166
618.100000	72.934802
618.000000	72.898766
617.900000	72.945049
617.800000	72.945539
617.700000	72.960849
617.600000	72.916290
617.500000	72.919586
617.400000	72.920201
617.300000	72.950008
617.200000	72.953148
617.100000	72.943103
617.000000	72.945186
616.900000	72.944171
616.800000	72.875225
616.700000	72.896618
616.600000	72.904182
616.500000	72.937013
616.400000	72.942895
616.300000	73.032945
616.200000	72.984799
616.100000	72.931644
616.000000	72.936698
615.900000	72.859432
615.800000	72.913773
615.700000	72.952806
615.600000	72.941032
615.500000	72.940546
615.400000	72.926515
615.300000	72.974193
615.200000	72.896973
615.100000	72.871242
615.000000	72.918721
614.900000	72.911371
614.800000	72.949609
614.700000	72.967522
614.600000	72.889755
614.500000	72.872511
614.400000	72.868343
614.300000	72.887866
614.200000	72.929435
614.100000	72.938252
614.000000	72.924501
613.900000	72.901533
613.800000	72.893281
613.700000	72.916596
613.600000	72.904576
613.500000	72.871161
613.400000	72.888758
613.300000	72.872288
613.200000	72.896057
613.100000	72.880008
613.000000	72.883938
612.900000	72.845769
612.800000	72.861399
612.700000	72.794830
612.600000	72.833516
612.500000	72.891070
612.400000	72.913803
612.300000	72.884943
612.200000	72.877506
612.100000	72.831748
612.000000	72.838013
611.900000	72.858885
611.800000	72.877318
611.700000	72.888774
611.600000	72.890493
611.500000	72.922321
611.400000	72.919834
611.300000	72.894859
611.200000	72.917706
611.100000	72.893932
611.000000	72.858661
610.900000	72.829911
610.800000	72.861275
610.700000	72.873285
610.600000	72.885219
610.500000	72.866270
610.400000	72.865620
610.300000	72.839122
610.200000	72.831499
610.100000	72.799967
610.000000	72.798955
609.900000	72.886196
609.800000	72.852980
609.700000	72.835595
609.600000	72.852170
609.500000	72.854043
609.400000	72.820072
609.300000	72.839281
609.200000	72.831153
609.100000	72.832770
609.000000	72.848326
608.900000	72.817473
608.800000	72.821323
608.700000	72.838834
608.600000	72.824111
608.500000	72.814255
608.400000	72.829315
608.300000	72.833317
608.200000	72.857372
608.100000	72.857584
608.000000	72.824281
607.900000	72.808469
607.800000	72.798575
607.700000	72.786936
607.600000	72.794237
607.500000	72.841302
607.400000	72.842032
607.300000	72.809002
607.200000	72.835718
607.100000	72.815655
607.000000	72.795700
606.900000	72.831224
606.800000	72.845638
606.700000	72.836759
606.600000	72.793190
606.500000	72.830872
606.400000	72.826493
606.300000	72.772211
606.200000	72.797577
606.100000	72.770512
606.000000	72.768073
605.900000	72.818870
605.800000	72.784383
605.700000	72.753073
605.600000	72.824693
605.500000	72.865702
605.400000	72.807102
605.300000	72.788145
605.200000	72.792140
605.100000	72.839047
605.000000	72.813172
604.900000	72.770499
604.800000	72.755208
604.700000	72.718582
604.600000	72.736751
604.500000	72.758440
604.400000	72.801770
604.300000	72.791103
604.200000	72.740361
604.100000	72.800120
604.000000	72.788807
603.900000	72.771750
603.800000	72.792811
603.700000	72.780618
603.600000	72.783201
603.500000	72.759036
603.400000	72.789085
603.300000	72.797768
603.200000	72.821406
603.100000	72.810220
603.000000	72.818083
602.900000	72.803022
602.800000	72.774569
602.700000	72.763317
602.600000	72.789292
602.500000	72.779970
602.400000	72.751009
602.300000	72.713857
602.200000	72.755619
602.100000	72.779828
602.000000	72.724484
601.900000	72.716275
601.800000	72.674890
601.700000	72.739272
601.600000	72.725153
601.500000	72.737619
601.400000	72.760829
601.300000	72.742046
601.200000	72.728356
601.100000	72.697201
601.000000	72.705710
600.900000	72.750709
600.800000	72.777117
600.700000	72.749104
600.600000	72.768919
600.500000	72.717081
600.400000	72.712122
600.300000	72.712473
600.200000	72.735051
600.100000	72.716009
600.000000	72.721296
599.900000	72.709047
599.800000	72.717996
599.700000	72.688551
599.600000	72.724844
599.500000	72.682196
599.400000	72.695611
599.300000	72.680300
599.200000	72.713306
599.100000	72.686719
599.000000	72.642133
598.900000	72.679351
598.800000	72.699251
598.700000	72.694034
598.600000	72.697180
598.500000	72.723708
598.400000	72.687629
598.300000	72.703587
598.200000	72.711456
598.100000	72.715865
598.000000	72.724700
597.900000	72.713995
597.800000	72.746594
597.700000	72.731695
597.600000	72.763129
597.500000	72.745033
597.400000	72.742398
597.300000	72.729266
597.200000	72.727085
597.100000	72.675069
597.000000	72.706393
596.900000	72.664623
596.800000	72.635064
596.700000	72.627789
596.600000	72.678065
596.500000	72.674922
596.400000	72.708299
596.300000	72.654150
596.200000	72.643166
596.100000	72.757818
596.000000	72.715280
595.900000	72.701296
595.800000	72.673339
595.700000	72.631524
595.600000	72.643420
595.500000	72.651605
595.400000	72.607705
595.300000	72.639215
595.200000	72.643180
595.100000	72.687613
595.000000	72.589842
594.900000	72.673534
594.800000	72.656074
594.700000	72.628851
594.600000	72.631423
594.500000	72.684026
594.400000	72.581783
594.300000	72.660521
594.200000	72.679170
594.100000	72.643993
594.000000	72.675069
593.900000	72.582692
593.800000	72.612739
593.700000	72.635278
593.600000	72.605207
593.500000	72.557832
593.400000	72.593732
593.300000	72.574827
593.200000	72.588708
593.100000	72.554420
593.000000	72.604029
592.900000	72.631088
592.800000	72.638162
592.700000	72.666823
592.600000	72.593405
592.500000	72.641965
592.400000	72.612442
592.300000	72.669103
592.200000	72.644155
592.100000	72.678695
592.000000	72.659634
591.900000	72.598341
591.800000	72.588993
591.700000	72.614507
591.600000	72.681815
591.500000	72.617792
591.400000	72.605489
591.300000	72.621232
591.200000	72.637098
591.100000	72.597910
591.000000	72.637442
590.900000	72.563725
590.800000	72.567297
590.700000	72.611192
590.600000	72.583044
590.500000	72.578953
590.400000	72.607757
590.300000	72.602859
590.200000	72.563551
590.100000	72.641590
590.000000	72.610556
589.900000	72.644079
589.800000	72.603915
589.700000	72.615633
589.600000	72.572326
589.500000	72.584715
589.400000	72.580186
589.300000	72.531008
589.200000	72.578573
589.100000	72.595285
589.000000	72.629010
588.900000	72.579568
588.800000	72.562553
588.700000	72.559826
588.600000	72.572677
588.500000	72.569265
588.400000	72.533134
588.300000	72.560925
588.200000	72.540734
588.100000	72.544183
588.000000	72.564492
587.900000	72.544840
587.800000	72.568975
587.700000	72.584794
587.600000	72.582422
587.500000	72.554875
587.400000	72.596126
587.300000	72.607390
587.200000	72.599812
587.100000	72.595410
587.000000	72.545780
586.900000	72.525818
586.800000	72.604714
586.700000	72.593241
586.600000	72.561173
586.500000	72.571009
586.400000	72.556152
586.300000	72.538853
586.200000	72.509392
586.100000	72.543583
586.000000	72.556119
585.900000	72.559635
585.800000	72.558839
585.700000	72.538590
585.600000	72.539442
585.500000	72.542521
585.400000	72.540002
585.300000	72.549988
585.200000	72.537136
585.100000	72.529876
585.000000	72.523092
584.900000	72.545250
584.800000	72.582019
584.700000	72.522716
584.600000	72.511062
584.500000	72.506976
584.400000	72.501682
584.300000	72.513332
584.200000	72.505659
584.100000	72.523674
584.000000	72.495468
583.900000	72.460999
583.800000	72.491966
583.700000	72.468251
583.600000	72.488242
583.500000	72.482199
583.400000	72.472214
583.300000	72.468953
583.200000	72.481638
583.100000	72.500532
583.000000	72.501977
582.900000	72.495259
582.800000	72.434303
582.700000	72.457247
582.600000	72.522108
582.500000	72.499863
582.400000	72.481119
582.300000	72.525474
582.200000	72.503803
582.100000	72.475523
582.000000	72.457440
581.900000	72.446318
581.800000	72.447499
581.700000	72.478554
581.600000	72.499359
581.500000	72.508113
581.400000	72.497355
581.300000	72.474925
581.200000	72.478029
581.100000	72.474952
581.000000	72.440868
580.900000	72.432325
580.800000	72.472644
580.700000	72.490193
580.600000	72.466004
580.500000	72.477013
580.400000	72.503744
580.300000	72.452274
580.200000	72.413009
580.100000	72.437911
580.000000	72.460294
579.900000	72.493601
579.800000	72.510909
579.700000	72.458157
579.600000	72.476823
579.500000	72.486362
579.400000	72.464251
579.300000	72.438976
579.200000	72.433963
579.100000	72.427746
579.000000	72.478366
578.900000	72.498309
578.800000	72.474178
578.700000	72.436678
578.600000	72.430089
578.500000	72.422995
578.400000	72.429015
578.300000	72.438360
578.200000	72.450948
578.100000	72.428417
578.000000	72.375920
577.900000	72.393891
577.800000	72.419819
577.700000	72.395796
577.600000	72.379757
577.500000	72.397973
577.400000	72.432671
577.300000	72.414603
577.200000	72.408675
577.100000	72.362009
577.000000	72.400343
576.900000	72.481167
576.800000	72.448447
576.700000	72.386549
576.600000	72.397549
576.500000	72.391484
576.400000	72.365241
576.300000	72.364017
576.200000	72.367476
576.100000	72.375466
576.000000	72.347387
575.900000	72.375324
575.800000	72.431089
575.700000	72.440297
575.600000	72.411956
575.500000	72.427387
575.400000	72.404027
575.300000	72.389665
575.200000	72.399218
575.100000	72.427578
575.000000	72.397805
574.900000	72.382851
574.800000	72.372322
574.700000	72.382405
574.600000	72.361055
574.500000	72.334389
574.400000	72.309185
574.300000	72.348350
574.200000	72.348662
574.100000	72.357855
574.000000	72.387350
573.900000	72.387294
573.800000	72.373205
573.700000	72.344877
573.600000	72.349518
573.500000	72.394799
573.400000	72.372114
573.300000	72.335520
573.200000	72.327670
573.100000	72.318113
573.000000	72.315355
572.900000	72.334376
572.800000	72.359493
572.700000	72.387762
572.600000	72.358073
572.500000	72.348658
572.400000	72.353268
572.300000	72.342882
572.200000	72.356213
572.100000	72.389509
572.000000	72.331488
571.900000	72.319291
571.800000	72.292283
571.700000	72.304626
571.600000	72.335269
571.500000	72.338744
571.400000	72.320884
571.300000	72.302890
571.200000	72.285462
571.100000	72.295539
571.000000	72.333269
570.900000	72.291651
570.800000	72.310676
570.700000	72.293318
570.600000	72.327483
570.500000	72.296454
570.400000	72.336450
570.300000	72.305047
570.200000	72.319151
570.100000	72.308214
570.000000	72.269708
569.900000	72.267041
569.800000	72.319771
569.700000	72.260757
569.600000	72.299897
569.500000	72.300138
569.400000	72.286631
569.300000	72.294675
569.200000	72.250714
569.100000	72.268080
569.000000	72.316179
568.900000	72.278782
568.800000	72.231093
568.700000	72.292422
568.600000	72.265205
568.500000	72.189994
568.400000	72.228500
568.300000	72.247660
568.200000	72.229473
568.100000	72.219130
568.000000	72.265420
567.900000	72.282411
567.800000	72.244663
567.700000	72.220357
567.600000	72.248333
567.500000	72.199376
567.400000	72.250086
567.300000	72.209001
567.200000	72.256406
567.100000	72.293077
567.000000	72.225300
566.900000	72.266833
566.800000	72.233990
566.700000	72.199340
566.600000	72.211708
566.500000	72.247686
566.400000	72.237973
566.300000	72.263961
566.200000	72.259865
566.100000	72.218668
566.000000	72.201290
565.900000	72.182866
565.800000	72.215094
565.700000	72.217998
565.600000	72.280365
565.500000	72.195972
565.400000	72.188108
565.300000	72.197879
565.200000	72.207350
565.100000	72.202415
565.000000	72.222149
564.900000	72.174790
564.800000	72.159436
564.700000	72.157992
564.600000	72.203991
564.500000	72.186049
564.400000	72.149382
564.300000	72.166086
564.200000	72.149890
564.100000	72.157163
564.000000	72.143075
563.900000	72.149426
563.800000	72.194226
563.700000	72.168083
563.600000	72.153785
563.500000	72.163267
563.400000	72.167996
563.300000	72.169801
563.200000	72.166254
563.100000	72.142550
563.000000	72.145265
562.900000	72.179705
562.800000	72.142421
562.700000	72.150917
562.600000	72.126556
562.500000	72.119969
562.400000	72.132887
562.300000	72.157636
562.200000	72.186564
562.100000	72.215373
562.000000	72.214225
561.900000	72.175663
561.800000	72.180638
561.700000	72.165983
561.600000	72.218804
561.500000	72.230552
561.400000	72.209248
561.300000	72.166576
561.200000	72.183005
561.100000	72.241377
561.000000	72.231313
560.900000	72.158570
560.800000	72.183927
560.700000	72.163253
560.600000	72.162780
560.500000	72.195700
560.400000	72.209082
560.300000	72.205582
560.200000	72.156831
560.100000	72.151389
560.000000	72.202789
559.900000	72.227894
559.800000	72.166873
559.700000	72.147489
559.600000	72.172546
559.500000	72.183935
559.400000	72.186688
559.300000	72.162140
559.200000	72.162512
559.100000	72.192807
559.000000	72.143594
558.900000	72.165831
558.800000	72.135587
558.700000	72.077210
558.600000	72.118089
558.500000	72.200392
558.400000	72.169961
558.300000	72.135807
558.200000	72.118658
558.100000	72.121149
558.000000	72.121175
557.900000	72.111969
557.800000	72.100298
557.700000	72.118828
557.600000	72.135624
557.500000	72.135061
557.400000	72.117753
557.300000	72.120394
557.200000	72.131124
557.100000	72.105515
557.000000	72.101991
556.900000	72.096489
556.800000	72.085266
556.700000	72.100682
556.600000	72.117732
556.500000	72.113105
556.400000	72.120429
556.300000	72.102884
556.200000	72.082891
556.100000	72.052946
556.000000	72.078026
555.900000	72.101946
555.800000	72.075736
555.700000	72.063839
555.600000	72.068160
555.500000	72.100250
555.400000	72.085268
555.300000	72.094162
555.200000	72.094284
555.100000	72.090113
555.000000	72.067185
554.900000	72.044375
554.800000	72.044395
554.700000	72.066712
554.600000	72.085848
554.500000	72.047830
554.400000	72.022176
554.300000	72.037387
554.200000	72.021718
554.100000	72.027951
554.000000	72.036484
553.900000	72.001593
553.800000	72.015702
553.700000	72.072323
553.600000	72.064643
553.500000	72.054372
553.400000	72.063664
553.300000	72.032396
553.200000	72.018554
553.100000	72.032365
553.000000	72.046495
552.900000	72.040150
552.800000	72.035530
552.700000	72.022003
552.600000	72.023343
552.500000	72.034543
552.400000	72.046275
552.300000	72.035115
552.200000	72.024588
552.100000	72.026556
552.000000	72.012440
551.900000	71.979805
551.800000	71.999788
551.700000	72.027669
551.600000	72.016963
551.500000	71.993612
551.400000	71.988118
551.300000	71.991288
551.200000	71.922193
551.100000	71.938834
551.000000	71.965826
550.900000	71.938772
550.800000	71.968867
550.700000	71.983204
550.600000	72.001184
550.500000	71.995927
550.400000	71.978669
550.300000	71.971833
550.200000	71.991687
550.100000	72.004865
550.000000	71.980485
549.900000	71.982098
549.800000	71.974215
549.700000	71.946442
549.600000	71.963508
549.500000	71.946909
549.400000	71.948863
549.300000	71.960639
549.200000	71.959943
549.100000	71.956966
549.000000	71.943427
548.900000	71.921191
548.800000	71.915610
548.700000	71.953793
548.600000	71.992035
548.500000	71.945718
548.400000	71.912800
548.300000	71.946828
548.200000	71.930415
548.100000	71.940123
548.000000	71.930649
547.900000	71.940396
547.800000	71.936313
547.700000	71.960350
547.600000	71.935167
547.500000	71.902845
547.400000	71.936101
547.300000	71.887910
547.200000	71.884806
547.100000	71.926730
547.000000	71.928190
546.900000	71.880253
546.800000	71.929939
546.700000	71.957021
546.600000	71.936769
546.500000	71.952341
546.400000	71.892395
546.300000	71.899576
546.200000	71.885450
546.100000	71.914641
546.000000	71.975382
545.900000	71.892591
545.800000	71.855522
545.700000	71.927309
545.600000	71.915207
545.500000	71.894464
545.400000	71.881130
545.300000	71.889693
545.200000	71.884778
545.100000	71.907449
545.000000	71.887789
544.900000	71.865721
544.800000	71.885772
544.700000	71.901115
544.600000	71.844786
544.500000	71.795084
544.400000	71.851451
544.300000	71.855204
544.200000	71.826216
544.100000	71.833167
544.000000	71.856581
543.900000	71.832317
543.800000	71.831042
543.700000	71.835158
543.600000	71.783789
543.500000	71.867830
543.400000	71.836764
543.300000	71.852064
543.200000	71.855088
543.100000	71.862645
543.000000	71.826481
542.900000	71.835609
542.800000	71.843053
542.700000	71.799328
542.600000	71.857022
542.500000	71.802258
542.400000	71.817192
542.300000	71.802503
542.200000	71.838614
542.100000	71.796462
542.000000	71.790154
541.900000	71.829981
541.800000	71.779059
541.700000	71.764996
541.600000	71.796477
541.500000	71.808852
541.400000	71.801154
541.300000	71.821993
541.200000	71.798439
541.100000	71.790921
541.000000	71.809009
540.900000	71.780553
540.800000	71.792120
540.700000	71.799260
540.600000	71.811070
540.500000	71.794400
540.400000	71.782013
540.300000	71.789605
540.200000	71.793531
540.100000	71.764755
540.000000	71.809195
539.900000	71.772718
539.800000	71.782244
539.700000	71.819639
539.600000	71.806550
539.500000	71.764377
539.400000	71.729326
539.300000	71.752482
539.200000	71.703453
539.100000	71.720079
539.000000	71.711325
538.900000	71.752777
538.800000	71.738992
538.700000	71.761884
538.600000	71.744733
538.500000	71.745085
538.400000	71.754436
538.300000	71.732414
538.200000	71.720751
538.100000	71.692694
538.000000	71.741655
537.900000	71.737003
537.800000	71.763354
537.700000	71.698017
537.600000	71.717295
537.500000	71.697526
537.400000	71.717886
537.300000	71.645994
537.200000	71.649711
537.100000	71.676237
537.000000	71.693317
536.900000	71.703972
536.800000	71.727320
536.700000	71.722827
536.600000	71.674737
536.500000	71.711564
536.400000	71.693138
536.300000	71.668790
536.200000	71.661708
536.100000	71.649110
536.000000	71.656339
535.900000	71.637295
535.800000	71.687645
535.700000	71.686958
535.600000	71.678652
535.500000	71.655152
535.400000	71.621978
535.300000	71.629805
535.200000	71.673226
535.100000	71.672473
535.000000	71.658797
534.900000	71.643362
534.800000	71.646601
534.700000	71.636491
534.600000	71.644041
534.500000	71.628596
534.400000	71.640871
534.300000	71.653792
534.200000	71.638135
534.100000	71.642460
534.000000	71.645869
533.900000	71.648720
533.800000	71.645519
533.700000	71.648388
533.600000	71.609818
533.500000	71.596272
533.400000	71.615594
533.300000	71.607545
533.200000	71.612601
533.100000	71.614595
533.000000	71.598738
532.900000	71.609984
532.800000	71.580868
532.700000	71.593111
532.600000	71.592269
532.500000	71.584129
532.400000	71.595915
532.300000	71.608720
532.200000	71.599872
532.100000	71.599586
532.000000	71.580020
531.900000	71.592182
531.800000	71.559227
531.700000	71.543584
531.600000	71.546586
531.500000	71.573858
531.400000	71.585051
531.300000	71.566161
531.200000	71.547540
531.100000	71.564278
531.000000	71.569581
530.900000	71.575298
530.800000	71.548485
530.700000	71.531234
530.600000	71.539933
530.500000	71.542032
530.400000	71.544247
530.300000	71.531065
530.200000	71.547585
530.100000	71.538406
530.000000	71.518703
529.900000	71.542744
529.800000	71.568591
529.700000	71.538068
529.600000	71.517279
529.500000	71.521317
529.400000	71.524155
529.300000	71.527935
529.200000	71.528815
529.100000	71.532122
529.000000	71.514455
528.900000	71.504444
528.800000	71.501617
528.700000	71.495228
528.600000	71.492681
528.500000	71.478708
528.400000	71.475155
528.300000	71.464630
528.200000	71.454682
528.100000	71.497946
528.000000	71.506801
527.900000	71.496721
527.800000	71.502753
527.700000	71.492237
527.600000	71.478554
527.500000	71.473392
527.400000	71.468088
527.300000	71.485422
527.200000	71.472884
527.100000	71.438909
527.000000	71.444239
526.900000	71.464758
526.800000	71.448815
526.700000	71.448674
526.600000	71.454399
526.500000	71.464817
526.400000	71.476111
526.300000	71.436494
526.200000	71.433182
526.100000	71.394550
526.000000	71.422134
525.900000	71.461969
525.800000	71.440339
525.700000	71.412218
525.600000	71.409037
525.500000	71.404896
525.400000	71.428689
525.300000	71.407781
525.200000	71.416034
525.100000	71.419008
525.000000	71.426237
524.900000	71.416542
524.800000	71.404199
524.700000	71.402029
524.600000	71.398318
524.500000	71.394595
524.400000	71.411364
524.300000	71.403192
524.200000	71.392900
524.100000	71.384699
524.000000	71.387253
523.900000	71.384165
523.800000	71.353384
523.700000	71.345339
523.600000	71.363758
523.500000	71.331491
523.400000	71.330884
523.300000	71.358323
523.200000	71.356345
523.100000	71.349107
523.000000	71.345708
522.900000	71.338764
522.800000	71.312353
522.700000	71.313368
522.600000	71.334495
522.500000	71.330239
522.400000	71.326348
522.300000	71.309253
522.200000	71.312736
522.100000	71.321475
522.000000	71.309678
521.900000	71.285395
521.800000	71.281950
521.700000	71.292820
521.600000	71.294177
521.500000	71.301996
521.400000	71.270849
521.300000	71.272702
521.200000	71.260480
521.100000	71.271532
521.000000	71.267834
520.900000	71.257714
520.800000	71.233046
520.700000	71.201362
520.600000	71.219224
520.500000	71.241950
520.400000	71.253537
520.300000	71.251152
520.200000	71.228344
520.100000	71.231739
520.000000	71.243613
519.900000	71.262103
519.800000	71.208496
519.700000	71.230725
519.600000	71.184991
519.500000	71.192415
519.400000	71.239378
519.300000	71.209030
519.200000	71.193336
519.100000	71.197916
519.000000	71.202924
518.900000	71.222376
518.800000	71.215231
518.700000	71.190363
518.600000	71.201707
518.500000	71.195255
518.400000	71.197707
518.300000	71.201059
518.200000	71.192040
518.100000	71.170732
518.000000	71.181709
517.900000	71.181991
517.800000	71.214836
517.700000	71.153244
517.600000	71.137854
517.500000	71.138348
517.400000	71.147874
517.300000	71.133847
517.200000	71.136635
517.100000	71.172702
517.000000	71.183919
516.900000	71.132609
516.800000	71.146097
516.700000	71.151241
516.600000	71.111457
516.500000	71.127022
516.400000	71.131839
516.300000	71.126917
516.200000	71.126599
516.100000	71.120903
516.000000	71.119294
515.900000	71.086274
515.800000	71.115052
515.700000	71.112609
515.600000	71.095670
515.500000	71.114889
515.400000	71.094064
515.300000	71.112503
515.200000	71.059826
515.100000	71.073970
515.000000	71.084539
514.900000	71.064009
514.800000	71.062959
514.700000	71.087552
514.600000	71.044472
514.500000	71.049603
514.400000	71.053671
514.300000	71.035693
514.200000	71.053356
514.100000	71.014867
514.000000	71.033665
513.900000	70.998038
513.800000	71.004466
513.700000	71.007689
513.600000	71.037524
513.500000	70.992585
513.400000	71.000234
513.300000	71.003991
513.200000	70.990649
513.100000	70.982956
513.000000	70.964026
512.900000	70.950821
512.800000	70.977338
512.700000	70.975532
512.600000	70.963791
512.500000	70.935974
512.400000	70.926533
512.300000	70.920947
512.200000	70.909365
512.100000	70.897963
512.000000	70.940734
511.900000	70.949437
511.800000	70.947431
511.700000	70.937996
511.600000	70.909376
511.500000	70.917946
511.400000	70.941533
511.300000	70.932038
511.200000	70.853301
511.100000	70.899010
511.000000	70.877151
510.900000	70.886172
510.800000	70.882320
510.700000	70.896523
510.600000	70.870626
510.500000	70.892470
510.400000	70.897271
510.300000	70.861326
510.200000	70.885683
510.100000	70.846706
510.000000	70.865020
509.900000	70.862464
509.800000	70.857699
509.700000	70.856248
509.600000	70.844446
509.500000	70.856794
509.400000	70.852544
509.300000	70.845538
509.200000	70.804267
509.100000	70.810464
509.000000	70.820743
508.900000	70.836680
508.800000	70.824907
508.700000	70.791802
508.600000	70.788628
508.500000	70.814479
508.400000	70.822785
508.300000	70.795597
508.200000	70.802682
508.100000	70.791748
508.000000	70.776833
507.900000	70.778663
507.800000	70.788657
507.700000	70.769013
507.600000	70.764055
507.500000	70.776124
507.400000	70.760609
507.300000	70.780123
507.200000	70.779204
507.100000	70.734863
507.000000	70.716340
506.900000	70.727007
506.800000	70.756553
506.700000	70.772545
506.600000	70.744602
506.500000	70.720185
506.400000	70.750120
506.300000	70.762992
506.200000	70.708623
506.100000	70.705260
506.000000	70.700278
505.900000	70.691193
505.800000	70.705985
505.700000	70.702096
505.600000	70.719994
505.500000	70.702369
505.400000	70.700366
505.300000	70.701300
505.200000	70.684683
505.100000	70.696922
505.000000	70.691266
504.900000	70.687485
504.800000	70.685127
504.700000	70.669975
504.600000	70.666723
504.500000	70.683345
504.400000	70.662065
504.300000	70.649953
504.200000	70.658446
504.100000	70.672644
504.000000	70.687128
503.900000	70.686222
503.800000	70.669930
503.700000	70.629304
503.600000	70.650951
503.500000	70.669202
503.400000	70.667006
503.300000	70.660244
503.200000	70.664339
503.100000	70.679794
503.000000	70.691255
502.900000	70.691690
502.800000	70.679014
502.700000	70.640663
502.600000	70.634146
502.500000	70.639648
502.400000	70.634499
502.300000	70.640721
502.200000	70.671210
502.100000	70.681109
502.000000	70.660170
501.900000	70.657704
501.800000	70.641062
501.700000	70.636588
501.600000	70.654520
501.500000	70.670125
501.400000	70.659329
501.300000	70.649760
501.200000	70.658316
501.100000	70.635912
501.000000	70.615356
500.900000	70.620951
500.800000	70.617324
500.700000	70.635934
500.600000	70.663443
500.500000	70.668591
500.400000	70.637511
500.300000	70.624244
500.200000	70.660052
500.100000	70.676750
500.000000	70.670487
499.900000	70.663392
499.800000	70.656584
499.700000	70.672676
499.600000	70.672280
499.500000	70.641649
499.400000	70.645918
499.300000	70.670754
499.200000	70.651398
499.100000	70.635581
499.000000	70.649733
498.900000	70.649597
498.800000	70.698316
498.700000	70.695548
498.600000	70.671571
498.500000	70.665042
498.400000	70.653329
498.300000	70.638663
498.200000	70.638373
498.100000	70.661399
498.000000	70.669432
497.900000	70.632681
497.800000	70.670490
497.700000	70.651256
497.600000	70.682173
497.500000	70.662152
497.400000	70.652601
497.300000	70.630724
497.200000	70.617592
497.100000	70.621075
497.000000	70.671939
496.900000	70.669997
496.800000	70.638159
496.700000	70.680236
496.600000	70.720280
496.500000	70.671501
496.400000	70.632545
496.300000	70.648476
496.200000	70.667679
496.100000	70.636792
496.000000	70.648299
495.900000	70.639961
495.800000	70.659174
495.700000	70.620457
495.600000	70.612960
495.500000	70.685225
495.400000	70.698113
495.300000	70.706089
495.200000	70.661596
495.100000	70.637739
495.000000	70.638951
494.900000	70.604836
494.800000	70.645634
494.700000	70.673875
494.600000	70.653433
494.500000	70.687692
494.400000	70.685343
494.300000	70.687489
494.200000	70.671556
494.100000	70.673258
494.000000	70.646317
493.900000	70.636182
493.800000	70.631883
493.700000	70.649376
493.600000	70.675961
493.500000	70.652422
493.400000	70.650811
493.300000	70.650990
493.200000	70.686545
493.100000	70.714268
493.000000	70.674206
492.900000	70.628521
492.800000	70.679604
492.700000	70.663286
492.600000	70.661852
492.500000	70.665970
492.400000	70.668773
492.300000	70.708482
492.200000	70.708073
492.100000	70.651687
492.000000	70.782080
491.900000	70.681266
491.800000	70.657151
491.700000	70.690662
491.600000	70.672639
491.500000	70.679680
491.400000	70.636097
491.300000	70.614757
491.200000	70.610843
491.100000	70.683779
491.000000	70.660336
490.900000	70.688155
490.800000	70.638545
490.700000	70.628039
490.600000	70.698853
490.500000	70.705725
490.400000	70.628604
490.300000	70.705240
490.200000	70.666921
490.100000	70.612803
490.000000	70.652608
489.900000	70.624807
489.800000	70.581646
489.700000	70.714917
489.600000	70.636981
489.500000	70.666251
489.400000	70.593150
489.300000	70.637390
489.200000	70.593076
489.100000	70.614745
489.000000	70.615684
488.900000	70.623024
488.800000	70.629657
488.700000	70.673142
488.600000	70.618689
488.500000	70.615108
488.400000	70.567065
488.300000	70.561603
488.200000	70.636580
488.100000	70.614750
488.000000	70.588245
487.900000	70.665507
487.800000	70.641685
487.700000	70.624135
487.600000	70.667474
487.500000	70.659341
487.400000	70.619565
487.300000	70.639353
487.200000	70.622720
487.100000	70.594447
487.000000	70.549446
486.900000	70.623202
486.800000	70.601557
486.700000	70.590061
486.600000	70.648909
486.500000	70.602844
486.400000	70.610950
486.300000	70.618831
486.200000	70.606700
486.100000	70.639788
486.000000	70.677090
485.900000	70.708208
485.800000	70.645394
485.700000	70.602635
485.600000	70.585639
485.500000	70.553551
485.400000	70.605708
485.300000	70.632738
485.200000	70.570792
485.100000	70.579146
485.000000	70.620090
484.900000	70.558444
484.800000	70.611874
484.700000	70.587033
484.600000	70.582839
484.500000	70.558966
484.400000	70.597095
484.300000	70.615973
484.200000	70.541269
484.100000	70.590330
484.000000	70.589899
483.900000	70.580837
483.800000	70.585022
483.700000	70.559447
483.600000	70.534136
483.500000	70.570432
483.400000	70.606010
483.300000	70.568360
483.200000	70.502649
483.100000	70.581974
483.000000	70.612715
482.900000	70.585196
482.800000	70.548306
482.700000	70.547261
482.600000	70.560240
482.500000	70.617016
482.400000	70.625276
482.300000	70.586613
482.200000	70.560959
482.100000	70.521823
482.000000	70.544918
481.900000	70.554470
481.800000	70.528032
481.700000	70.517143
481.600000	70.509438
481.500000	70.477356
481.400000	70.546771
481.300000	70.528446
481.200000	70.529686
481.100000	70.544054
481.000000	70.523374
480.900000	70.514000
480.800000	70.506525
480.700000	70.490710
480.600000	70.521963
480.500000	70.495660
480.400000	70.516509
480.300000	70.498371
480.200000	70.490038
480.100000	70.482513
480.000000	70.429293
479.900000	70.437121
479.800000	70.426674
479.700000	70.449949
479.600000	70.457154
479.500000	70.401825
479.400000	70.407844
479.300000	70.371443
479.200000	70.371684
479.100000	70.357019
479.000000	70.344052
478.900000	70.342017
478.800000	70.359814
478.700000	70.400700
478.600000	70.379796
478.500000	70.358421
478.400000	70.300125
478.300000	70.263013
478.200000	70.266922
478.100000	70.268437
478.000000	70.246604
477.900000	70.290435
477.800000	70.308308
477.700000	70.287666
477.600000	70.289391
477.500000	70.254711
477.400000	70.236511
477.300000	70.244487
477.200000	70.217637
477.100000	70.214106
477.000000	70.217290
476.900000	70.197485
476.800000	70.169054
476.700000	70.197187
476.600000	70.215773
476.500000	70.223775
476.400000	70.209099
476.300000	70.172920
476.200000	70.175506
476.100000	70.179015
476.000000	70.189419
475.900000	70.202301
475.800000	70.169900
475.700000	70.182336
475.600000	70.181066
475.500000	70.135880
475.400000	70.131241
475.300000	70.130294
475.200000	70.149966
475.100000	70.137148
475.000000	70.129537
474.900000	70.139092
474.800000	70.132820
474.700000	70.152791
474.600000	70.123901
474.500000	70.073363
474.400000	70.089283
474.300000	70.095092
474.200000	70.081565
474.100000	70.106127
474.000000	70.105346
473.900000	70.071546
473.800000	70.079900
473.700000	70.055594
473.600000	70.063329
473.500000	70.053903
473.400000	70.041476
473.300000	70.020587
473.200000	70.027423
473.100000	70.040860
473.000000	70.031756
472.900000	70.027997
472.800000	70.044012
472.700000	70.012139
472.600000	70.007275
472.500000	70.015462
472.400000	70.023591
472.300000	70.026899
472.200000	70.024997
472.100000	69.992103
472.000000	70.009558
471.900000	69.974162
471.800000	69.974754
471.700000	69.962002
471.600000	69.963056
471.500000	69.952010
471.400000	69.961721
471.300000	69.925735
471.200000	69.930538
471.100000	69.956936
471.000000	69.967184
470.900000	69.949350
470.800000	69.950152
470.700000	69.943763
470.600000	69.927172
470.500000	69.918970
470.400000	69.887548
470.300000	69.910780
470.200000	69.873210
470.100000	69.886379
470.000000	69.859859
469.900000	69.887594
469.800000	69.904649
469.700000	69.869828
469.600000	69.873893
469.500000	69.874927
469.400000	69.851628
469.300000	69.848133
469.200000	69.848282
469.100000	69.865221
469.000000	69.849578
468.900000	69.819247
468.800000	69.847163
468.700000	69.830421
468.600000	69.809498
468.500000	69.778133
468.400000	69.795977
468.300000	69.779945
468.200000	69.745939
468.100000	69.766658
468.000000	69.788863
467.900000	69.790335
467.800000	69.757827
467.700000	69.747418
467.600000	69.763200
467.500000	69.741102
467.400000	69.747034
467.300000	69.719935
467.200000	69.742002
467.100000	69.696100
467.000000	69.716443
466.900000	69.707350
466.800000	69.682374
466.700000	69.666510
466.600000	69.677641
466.500000	69.664661
466.400000	69.694297
466.300000	69.672881
466.200000	69.650815
466.100000	69.617434
466.000000	69.601817
465.900000	69.634219
465.800000	69.658427
465.700000	69.657120
465.600000	69.656927
465.500000	69.625061
465.400000	69.630723
465.300000	69.592296
465.200000	69.605294
465.100000	69.601404
465.000000	69.615715
464.900000	69.583916
464.800000	69.560532
464.700000	69.567212
464.600000	69.568727
464.500000	69.586753
464.400000	69.558736
464.300000	69.573461
464.200000	69.561849
464.100000	69.547741
464.000000	69.555111
463.900000	69.573124
463.800000	69.489716
463.700000	69.519521
463.600000	69.563228
463.500000	69.536444
463.400000	69.533895
463.300000	69.511113
463.200000	69.542500
463.100000	69.542620
463.000000	69.493298
462.900000	69.478780
462.800000	69.514286
462.700000	69.525700
462.600000	69.538691
462.500000	69.514511
462.400000	69.496492
462.300000	69.494671
462.200000	69.478248
462.100000	69.493899
462.000000	69.462101
461.900000	69.504930
461.800000	69.456888
461.700000	69.438650
461.600000	69.467670
461.500000	69.433062
461.400000	69.421168
461.300000	69.455384
461.200000	69.449348
461.100000	69.462764
461.000000	69.456359
460.900000	69.430929
460.800000	69.419649
460.700000	69.375862
460.600000	69.402354
460.500000	69.424867
460.400000	69.438097
460.300000	69.414025
460.200000	69.422170
460.100000	69.439871
460.000000	69.423574
459.900000	69.400449
459.800000	69.387849
459.700000	69.458765
459.600000	69.447028
459.500000	69.401186
459.400000	69.424058
459.300000	69.399517
459.200000	69.426170
459.100000	69.417602
459.000000	69.419958
458.900000	69.415542
458.800000	69.416347
458.700000	69.370373
458.600000	69.379561
458.500000	69.369090
458.400000	69.359070
458.300000	69.366544
458.200000	69.352512
458.100000	69.321094
458.000000	69.364298
457.900000	69.381476
457.800000	69.357876
457.700000	69.350597
457.600000	69.361818
457.500000	69.313762
457.400000	69.358757
457.300000	69.351906
457.200000	69.360859
457.100000	69.364982
457.000000	69.383400
456.900000	69.337907
456.800000	69.295818
456.700000	69.315850
456.600000	69.329378
456.500000	69.328674
456.400000	69.317363
456.300000	69.312642
456.200000	69.318517
456.100000	69.304879
456.000000	69.310095
455.900000	69.326286
455.800000	69.269952
455.700000	69.312218
455.600000	69.323582
455.500000	69.320691
455.400000	69.335852
455.300000	69.322810
455.200000	69.312773
455.100000	69.277284
455.000000	69.258179
454.900000	69.277960
454.800000	69.250084
454.700000	69.294148
454.600000	69.254432
454.500000	69.270866
454.400000	69.295985
454.300000	69.302073
454.200000	69.263668
454.100000	69.286439
454.000000	69.287979
453.900000	69.270722
453.800000	69.266442
453.700000	69.301492
453.600000	69.315998
453.500000	69.296363
453.400000	69.265165
453.300000	69.265112
453.200000	69.303721
453.100000	69.317703
453.000000	69.279919
452.900000	69.238885
452.800000	69.237444
452.700000	69.253580
452.600000	69.268714
452.500000	69.256122
452.400000	69.233167
452.300000	69.232133
452.200000	69.239571
452.100000	69.236235
452.000000	69.221871
451.900000	69.241540
451.800000	69.252822
451.700000	69.231034
451.600000	69.232088
451.500000	69.232729
451.400000	69.224627
451.300000	69.232611
451.200000	69.229606
451.100000	69.242579
451.000000	69.215904
450.900000	69.167559
450.800000	69.200787
450.700000	69.220712
450.600000	69.204436
450.500000	69.173388
450.400000	69.170379
450.300000	69.200969
450.200000	69.217308
450.100000	69.221622
450.000000	69.190908
449.900000	69.188899
449.800000	69.205418
449.700000	69.216983
449.600000	69.207438
449.500000	69.191937
449.400000	69.181169
449.300000	69.196945
449.200000	69.208383
449.100000	69.207234
449.000000	69.200470
448.900000	69.168327
448.800000	69.163182
448.700000	69.195446
448.600000	69.205287
448.500000	69.195577
448.400000	69.184587
448.300000	69.183603
448.200000	69.166871
448.100000	69.183324
448.000000	69.204096
447.900000	69.143185
447.800000	69.117062
447.700000	69.140446
447.600000	69.120662
447.500000	69.131608
447.400000	69.141211
447.300000	69.122526
447.200000	69.163868
447.100000	69.144589
447.000000	69.138242
446.900000	69.103207
446.800000	69.162085
446.700000	69.173356
446.600000	69.164780
446.500000	69.152632
446.400000	69.173331
446.300000	69.143611
446.200000	69.097814
446.100000	69.112555
446.000000	69.145288
445.900000	69.136938
445.800000	69.114433
445.700000	69.120286
445.600000	69.130202
445.500000	69.092524
445.400000	69.158525
445.300000	69.173134
445.200000	69.192513
445.100000	69.205825
445.000000	69.168260
444.900000	69.162987
444.800000	69.148132
444.700000	69.121190
444.600000	69.140597
444.500000	69.135704
444.400000	69.113487
444.300000	69.115150
444.200000	69.092339
444.100000	69.110683
444.000000	69.119877
443.900000	69.158871
443.800000	69.152404
443.700000	69.157547
443.600000	69.107472
443.500000	69.098908
443.400000	69.144527
443.300000	69.148365
443.200000	69.091486
443.100000	69.156981
443.000000	69.165078
442.900000	69.051846
442.800000	69.076480
442.700000	69.060764
442.600000	69.047122
442.500000	69.087507
442.400000	69.069955
442.300000	69.106142
442.200000	69.078353
442.100000	69.060264
442.000000	69.033994
441.900000	69.101523
441.800000	69.066653
441.700000	69.049606
441.600000	68.992679
441.500000	68.977156
441.400000	68.958775
441.300000	69.010977
441.200000	69.001319
441.100000	69.078353
441.000000	68.973828
440.900000	68.980615
440.800000	68.963694
440.700000	69.030168
440.600000	69.038376
440.500000	69.012017
440.400000	68.990290
440.300000	69.028355
440.200000	69.029314
440.100000	69.004301
440.000000	68.967852
439.900000	68.969854
439.800000	68.921023
439.700000	68.986399
439.600000	68.970524
439.500000	68.920246
439.400000	68.905327
439.300000	68.895226
439.200000	68.891857
439.100000	68.890250
439.000000	68.928278
438.900000	68.869321
438.800000	68.912768
438.700000	68.891371
438.600000	68.894295
438.500000	68.861433
438.400000	68.932772
438.300000	68.930379
438.200000	68.960527
438.100000	68.895172
438.000000	68.866648
437.900000	68.849243
437.800000	68.954704
437.700000	68.901367
437.600000	68.879356
437.500000	68.810456
437.400000	68.898440
437.300000	68.831548
437.200000	68.809420
437.100000	68.801046
437.000000	68.882177
436.900000	68.838804
436.800000	68.868373
436.700000	68.871417
436.600000	68.845563
436.500000	68.829004
436.400000	68.846350
436.300000	68.824306
436.200000	68.782253
436.100000	68.831051
436.000000	68.881288
435.900000	68.845035
435.800000	68.842562
435.700000	68.766239
435.600000	68.822101
435.500000	68.800676
435.400000	68.798017
435.300000	68.801773
435.200000	68.771262
435.100000	68.735003
435.000000	68.737504
434.900000	68.719966
434.800000	68.735539
434.700000	68.760604
434.600000	68.764900
434.500000	68.755736
434.400000	68.706699
434.300000	68.760159
434.200000	68.706370
434.100000	68.723906
434.000000	68.674996
433.900000	68.737319
433.800000	68.707717
433.700000	68.719734
433.600000	68.692317
433.500000	68.739354
433.400000	68.674146
433.300000	68.640205
433.200000	68.733828
433.100000	68.690307
433.000000	68.686850
432.900000	68.633427
432.800000	68.601371
432.700000	68.575823
432.600000	68.622664
432.500000	68.608862
432.400000	68.613496
432.300000	68.568234
432.200000	68.574294
432.100000	68.587984
432.000000	68.677077
431.900000	68.662362
431.800000	68.645040
431.700000	68.618488
431.600000	68.566416
431.500000	68.594934
431.400000	68.562460
431.300000	68.609191
431.200000	68.594313
431.100000	68.622841
431.000000	68.623031
430.900000	68.565800
430.800000	68.527719
430.700000	68.536876
430.600000	68.495278
430.500000	68.516852
430.400000	68.577795
430.300000	68.509347
430.200000	68.498548
430.100000	68.538072
430.000000	68.497638
429.900000	68.536277
429.800000	68.534454
429.700000	68.488661
429.600000	68.532555
429.500000	68.552739
429.400000	68.566292
429.300000	68.568335
429.200000	68.516278
429.100000	68.522829
429.000000	68.531646
428.900000	68.539111
428.800000	68.550479
428.700000	68.532928
428.600000	68.495175
428.500000	68.466781
428.400000	68.493496
428.300000	68.525480
428.200000	68.510431
428.100000	68.471946
428.000000	68.464968
427.900000	68.409942
427.800000	68.426401
427.700000	68.422028
427.600000	68.405406
427.500000	68.397917
427.400000	68.406820
427.300000	68.446786
427.200000	68.447613
427.100000	68.464769
427.000000	68.385024
426.900000	68.331574
426.800000	68.358741
426.700000	68.348672
426.600000	68.376603
426.500000	68.405628
426.400000	68.384471
426.300000	68.368039
426.200000	68.344343
426.100000	68.353779
426.000000	68.396665
425.900000	68.352128
425.800000	68.393831
425.700000	68.370291
425.600000	68.338116
425.500000	68.355586
425.400000	68.327565
425.300000	68.331360
425.200000	68.346849
425.100000	68.320009
425.000000	68.294899
424.900000	68.297153
424.800000	68.307973
424.700000	68.326711
424.600000	68.269323
424.500000	68.252718
424.400000	68.253401
424.300000	68.256808
424.200000	68.272322
424.100000	68.265803
424.000000	68.268514
423.900000	68.218634
423.800000	68.201018
423.700000	68.281188
423.600000	68.288910
423.500000	68.249020
423.400000	68.242954
423.300000	68.232294
423.200000	68.263645
423.100000	68.283757
423.000000	68.229803
422.900000	68.197183
422.800000	68.207704
422.700000	68.164457
422.600000	68.169546
422.500000	68.167916
422.400000	68.157017
422.300000	68.194707
422.200000	68.205529
422.100000	68.194640
422.000000	68.253825
421.900000	68.273625
421.800000	68.166266
421.700000	68.152870
421.600000	68.168728
421.500000	68.175713
421.400000	68.126028
421.300000	68.147239
421.200000	68.189005
421.100000	68.177623
421.000000	68.152328
420.900000	68.156551
420.800000	68.186837
420.700000	68.115725
420.600000	68.066254
420.500000	68.082376
420.400000	68.091678
420.300000	68.128271
420.200000	68.110708
420.100000	68.122725
420.000000	68.059579
419.900000	68.054194
419.800000	68.083404
419.700000	68.080760
419.600000	68.024719
419.500000	68.056044
419.400000	68.054261
419.300000	68.046077
419.200000	68.052333
419.100000	68.026430
419.000000	68.033566
418.900000	68.002930
418.800000	67.988997
418.700000	68.010262
418.600000	67.971646
418.500000	68.012503
418.400000	68.051825
418.300000	67.940434
418.200000	68.003657
418.100000	67.988122
418.000000	67.989594
417.900000	67.999483
417.800000	67.883682
417.700000	67.891458
417.600000	67.928428
417.500000	67.964792
417.400000	67.858938
417.300000	67.886589
417.200000	67.915139
417.100000	67.917243
417.000000	67.924572
416.900000	67.951471
416.800000	67.931578
416.700000	67.943470
416.600000	67.855845
416.500000	67.893898
416.400000	67.878598
416.300000	67.874806
416.200000	67.856297
416.100000	67.821992
416.000000	67.906249
415.900000	67.925555
415.800000	67.886862
415.700000	67.857429
415.600000	67.819995
415.500000	67.815383
415.400000	67.830359
415.300000	67.778941
415.200000	67.830362
415.100000	67.774277
415.000000	67.808370
414.900000	67.833126
414.800000	67.807108
414.700000	67.756328
414.600000	67.802920
414.500000	67.726424
414.400000	67.707922
414.300000	67.791882
414.200000	67.790032
414.100000	67.806030
414.000000	67.769231
413.900000	67.797915
413.800000	67.769306
413.700000	67.726608
413.600000	67.837274
413.500000	67.675302
413.400000	67.703915
413.300000	67.701493
413.200000	67.672360
413.100000	67.681637
413.000000	67.589504
412.900000	67.620676
412.800000	67.698239
412.700000	67.702435
412.600000	67.680312
412.500000	67.624541
412.400000	67.647353
412.300000	67.659204
412.200000	67.626171
412.100000	67.601640
412.000000	67.656519
411.900000	67.692968
411.800000	67.667638
411.700000	67.604943
411.600000	67.621544
411.500000	67.537088
411.400000	67.530906
411.300000	67.604138
411.200000	67.586424
411.100000	67.639730
411.000000	67.531835
410.900000	67.543432
410.800000	67.565904
410.700000	67.604858
410.600000	67.593272
410.500000	67.556957
410.400000	67.540976
410.300000	67.557757
410.200000	67.554641
410.100000	67.625117
410.000000	67.560213
409.900000	67.546151
409.800000	67.545308
409.700000	67.459538
409.600000	67.507522
409.500000	67.414867
409.400000	67.453862
409.300000	67.475672
409.200000	67.456032
409.100000	67.468364
409.000000	67.453882
408.900000	67.478389
408.800000	67.526514
408.700000	67.460952
408.600000	67.438613
408.500000	67.376567
408.400000	67.471335
408.300000	67.423710
408.200000	67.413596
408.100000	67.319409
408.000000	67.359225
407.900000	67.401217
407.800000	67.379492
407.700000	67.339887
407.600000	67.438904
407.500000	67.392547
407.400000	67.290608
407.300000	67.301372
407.200000	67.370383
407.100000	67.348587
407.000000	67.358054
406.900000	67.405274
406.800000	67.346090
406.700000	67.320514
406.600000	67.306182
406.500000	67.313257
406.400000	67.256678
406.300000	67.343475
406.200000	67.338858
406.100000	67.310145
406.000000	67.223932
405.900000	67.250118
405.800000	67.284110
405.700000	67.230484
405.600000	67.244192
405.500000	67.235415
405.400000	67.180318
405.300000	67.175534
405.200000	67.212735
405.100000	67.200192
405.000000	67.191548
404.900000	67.111068
404.800000	67.135631
404.700000	67.101706
404.600000	67.093246
404.500000	67.125546
404.400000	67.192917
404.300000	67.177887
404.200000	67.161756
404.100000	67.144908
404.000000	67.136597
403.900000	67.139493
403.800000	67.075491
403.700000	67.032901
403.600000	67.120548
403.500000	67.109374
403.400000	67.014143
403.300000	67.020637
403.200000	67.021919
403.100000	67.100798
403.000000	67.098352
402.900000	67.089376
402.800000	66.986579
402.700000	67.027993
402.600000	67.029997
402.500000	66.989804
402.400000	67.041617
402.300000	67.045892
402.200000	67.012599
402.100000	67.033431
402.000000	66.944990
401.900000	66.914265
401.800000	66.930413
401.700000	66.911224
401.600000	66.949652
401.500000	66.933382
401.400000	66.957964
401.300000	66.966493
401.200000	66.992924
401.100000	66.938406
401.000000	66.850191
400.900000	66.873315
400.800000	66.921908
400.700000	66.899552
400.600000	66.840656
400.500000	66.876925
400.400000	66.908467
400.300000	66.838749
400.200000	66.808424
400.100000	66.806935
400.000000	66.864887
399.900000	66.850121
399.800000	66.770127
399.700000	66.748389
399.600000	66.779353
399.500000	66.829844
399.400000	66.805366
399.300000	66.765899
399.200000	66.840504
399.100000	66.841619
399.000000	66.827249
398.900000	66.785395
398.800000	66.696133
398.700000	66.717688
398.600000	66.749196
398.500000	66.694633
398.400000	66.644570
398.300000	66.671130
398.200000	66.660881
398.100000	66.694781
398.000000	66.699011
397.900000	66.661085
397.800000	66.634381
397.700000	66.614203
397.600000	66.643079
397.500000	66.638050
397.400000	66.622893
397.300000	66.620284
397.200000	66.608608
397.100000	66.563055
397.000000	66.552090
396.900000	66.543536
396.800000	66.525694
396.700000	66.554470
396.600000	66.538417
396.500000	66.506149
396.400000	66.523598
396.300000	66.481157
396.200000	66.452080
396.100000	66.462493
396.000000	66.505735
395.900000	66.449128
395.800000	66.463009
395.700000	66.502219
395.600000	66.477140
395.500000	66.462311
395.400000	66.439192
395.300000	66.403771
395.200000	66.391035
395.100000	66.394195
395.000000	66.401623
394.900000	66.384618
394.800000	66.389052
394.700000	66.371050
394.600000	66.384540
394.500000	66.389970
394.400000	66.343578
394.300000	66.304468
394.200000	66.303117
394.100000	66.343814
394.000000	66.401444
393.900000	66.350655
393.800000	66.357056
393.700000	66.297670
393.600000	66.257537
393.500000	66.247792
393.400000	66.238830
393.300000	66.249807
393.200000	66.219028
393.100000	66.216953
393.000000	66.228146
392.900000	66.209881
392.800000	66.182550
392.700000	66.106249
392.600000	66.124021
392.500000	66.124607
392.400000	66.082468
392.300000	66.117568
392.200000	66.115708
392.100000	66.109571
392.000000	66.052371
391.900000	66.093550
391.800000	66.166739
391.700000	66.123037
391.600000	66.031360
391.500000	66.069991
391.400000	66.053219
391.300000	66.042949
391.200000	65.970953
391.100000	65.996112
391.000000	66.032200
390.900000	66.057917
390.800000	65.981069
390.700000	65.971654
390.600000	65.928754
390.500000	65.857884
390.400000	65.907188
390.300000	65.936899
390.200000	65.945197
390.100000	65.883478
390.000000	65.795991
389.900000	65.876211
389.800000	65.904526
389.700000	65.849552
389.600000	65.858862
389.500000	65.813804
389.400000	65.872865
389.300000	65.843665
389.200000	65.797790
389.100000	65.758059
389.000000	65.812026
388.900000	65.826760
388.800000	65.830415
388.700000	65.760632
388.600000	65.684220
388.500000	65.759918
388.400000	65.752187
388.300000	65.625918
388.200000	65.698130
388.100000	65.603801
388.000000	65.653693
387.900000	65.660537
387.800000	65.595394
387.700000	65.544931
387.600000	65.651711
387.500000	65.688108
387.400000	65.681207
387.300000	65.576307
387.200000	65.581952
387.100000	65.601821
387.000000	65.503310
386.900000	65.490473
386.800000	65.533805
386.700000	65.465475
386.600000	65.408976
386.500000	65.435986
386.400000	65.370812
386.300000	65.399456
386.200000	65.432030
386.100000	65.367975
386.000000	65.333526
385.900000	65.312399
385.800000	65.319709
385.700000	65.303743
385.600000	65.311471
385.500000	65.253499
385.400000	65.235562
385.300000	65.257988
385.200000	65.327731
385.100000	65.251256
385.000000	65.169079
384.900000	65.182072
384.800000	65.069590
384.700000	65.247445
384.600000	65.224552
384.500000	65.105692
384.400000	65.149633
384.300000	65.090232
384.200000	65.038325
384.100000	65.117972
384.000000	64.940782
383.900000	64.987718
383.800000	65.065098
383.700000	64.992465
383.600000	64.956035
383.500000	65.027481
383.400000	65.073705
383.300000	64.904234
383.200000	64.863794
383.100000	64.878296
383.000000	64.860365
382.900000	64.851287
382.800000	64.816405
382.700000	64.877733
382.600000	64.810217
382.500000	64.888173
382.400000	64.803372
382.300000	64.743921
382.200000	64.713044
382.100000	64.716821
382.000000	64.748087
381.900000	64.533174
381.800000	64.633396
381.700000	64.618273
381.600000	64.581440
381.500000	64.511954
381.400000	64.542197
381.300000	64.534863
381.200000	64.501788
381.100000	64.472745
381.000000	64.439285
380.900000	64.403848
380.800000	64.359189
380.700000	64.420212
380.600000	64.326072
380.500000	64.272885
380.400000	64.248492
380.300000	64.195412
380.200000	64.216507
380.100000	64.197894
380.000000	64.205026
379.900000	64.204898
379.800000	64.178708
379.700000	64.110281
379.600000	64.156649
379.500000	64.110197
379.400000	64.076928
379.300000	63.952048
379.200000	63.906257
379.100000	63.919873
379.000000	63.912275
378.900000	63.793921
378.800000	63.781068
378.700000	63.802053
378.600000	63.766825
378.500000	63.686506
378.400000	63.686268
378.300000	63.689447
378.200000	63.734142
378.100000	63.645703
378.000000	63.737201
377.900000	63.630237
377.800000	63.601819
377.700000	63.566615
377.600000	63.486813
377.500000	63.465668
377.400000	63.343555
377.300000	63.412715
377.200000	63.413939
377.100000	63.289224
377.000000	63.267901
376.900000	63.320060
376.800000	63.371061
376.700000	63.289026
376.600000	63.258174
376.500000	63.150736
376.400000	63.177086
376.300000	63.055663
376.200000	63.092275
376.100000	63.151035
376.000000	63.111822
375.900000	63.064941
375.800000	63.052593
375.700000	62.960604
375.600000	62.977045
375.500000	62.928712
375.400000	62.812052
375.300000	62.695886
375.200000	62.684723
375.100000	62.729967
375.000000	62.556990
374.900000	62.548255
374.800000	62.576231
374.700000	62.489071
374.600000	62.370640
374.500000	62.279834
374.400000	62.349023
374.300000	62.303729
374.200000	62.259970
374.100000	62.242062
374.000000	62.225330
373.900000	62.122782
373.800000	61.951096
373.700000	61.938674
373.600000	61.998255
373.500000	61.972706
373.400000	61.889615
373.300000	61.863405
373.200000	61.814188
373.100000	61.753360
373.000000	61.671949
372.900000	61.642988
372.800000	61.579032
372.700000	61.529390
372.600000	61.544324
372.500000	61.426156
372.400000	61.380608
372.300000	61.329197
372.200000	61.184436
372.100000	61.087975
372.000000	60.983343
371.900000	60.978688
371.800000	61.011579
371.700000	60.930667
371.600000	60.889768
371.500000	60.865258
371.400000	60.783496
371.300000	60.642589
371.200000	60.525773
371.100000	60.580182
371.000000	60.503479
370.900000	60.293280
370.800000	60.176726
370.700000	60.129431
370.600000	60.116209
370.500000	60.159103
370.400000	60.041199
370.300000	59.902377
370.200000	59.815799
370.100000	59.666472
370.000000	59.638734
369.900000	59.518699
369.800000	59.437193
369.700000	59.436301
369.600000	59.350163
369.500000	59.327754
369.400000	59.248946
369.300000	59.159504
369.200000	59.079020
369.100000	59.002246
369.000000	58.847448
368.900000	58.756871
368.800000	58.619977
368.700000	58.529984
368.600000	58.526619
368.500000	58.444797
368.400000	58.296317
368.300000	58.127232
368.200000	58.114350
368.100000	58.026037
368.000000	57.825199
367.900000	57.756671
367.800000	57.665502
367.700000	57.531534
367.600000	57.463923
367.500000	57.321012
367.400000	57.306752
367.300000	57.253225
367.200000	57.071362
367.100000	56.952813
367.000000	56.712558
366.900000	56.648224
366.800000	56.509801
366.700000	56.370473
366.600000	56.117681
366.500000	56.027038
366.400000	56.040910
366.300000	55.915202
366.200000	55.818252
366.100000	55.686457
366.000000	55.524691
365.900000	55.294928
365.800000	55.093650
365.700000	55.041094
365.600000	54.922192
365.500000	54.775543
365.400000	54.688287
365.300000	54.571789
365.200000	54.385766
365.100000	54.253444
365.000000	54.092502
364.900000	53.904996
364.800000	53.720857
364.700000	53.590224
364.600000	53.437142
364.500000	53.311691
364.400000	53.077138
364.300000	52.920673
364.200000	52.716476
364.100000	52.616218
364.000000	52.511433
363.900000	52.235590
363.800000	52.067150
363.700000	51.848927
363.600000	51.728387
363.500000	51.499745
363.400000	51.282681
363.300000	51.103161
363.200000	50.890542
363.100000	50.754389
363.000000	50.605842
362.900000	50.326434
362.800000	50.117696
362.700000	49.943838
362.600000	49.805134
362.500000	49.631545
362.400000	49.445085
362.300000	49.180907
362.200000	48.967535
362.100000	48.785124
362.000000	48.563258
361.900000	48.331810
361.800000	48.008660
361.700000	47.814178
361.600000	47.608945
361.500000	47.451127
361.400000	47.163786
361.300000	46.901535
361.200000	46.788821
361.100000	46.511028
361.000000	46.280325
360.900000	45.999304
360.800000	45.748950
360.700000	45.424617
360.600000	45.256792
360.500000	44.987178
360.400000	44.762327
360.300000	44.440932
360.200000	44.213579
360.100000	43.938665
360.000000	43.662321
359.900000	43.472280
359.800000	43.174216
359.700000	42.899253
359.600000	42.602040
359.500000	42.321785
359.400000	41.981939
359.300000	41.776622
359.200000	41.415666
359.100000	41.221233
359.000000	40.942107
358.900000	40.639118
358.800000	40.428529
358.700000	40.107589
358.600000	39.757461
358.500000	39.510298
358.400000	39.152289
358.300000	38.870602
358.200000	38.582767
358.100000	38.238344
358.000000	37.877938
357.900000	37.708115
357.800000	37.286637
357.700000	36.988021
357.600000	36.707007
357.500000	36.419214
357.400000	36.092944
357.300000	35.802234
357.200000	35.407035
357.100000	35.068398
357.000000	34.761350
356.900000	34.426537
356.800000	34.133377
356.700000	33.820418
356.600000	33.326919
356.500000	33.095549
356.400000	32.781214
356.300000	32.420509
356.200000	32.080641
356.100000	31.686931
356.000000	31.380153
355.900000	30.987313
355.800000	30.677310
355.700000	30.334340
355.600000	30.035719
355.500000	29.630701
355.400000	29.281390
355.300000	28.924240
355.200000	28.552813
355.100000	28.204060
355.000000	27.842909
354.900000	27.508755
354.800000	27.212412
354.700000	26.769803
354.600000	26.418392
354.500000	26.081731
354.400000	25.710069
354.300000	25.379969
354.200000	25.055957
354.100000	24.688190
354.000000	24.260022
353.900000	23.918908
353.800000	23.564970
353.700000	23.213859
353.600000	22.920674
353.500000	22.537931
353.400000	22.132481
353.300000	21.796706
353.200000	21.456404
353.100000	21.104679
353.000000	20.772200
352.900000	20.425781
352.800000	20.061346
352.700000	19.704754
352.600000	19.382996
352.500000	19.042418
352.400000	18.719619
352.300000	18.362114
352.200000	17.991760
352.100000	17.636600
352.000000	17.340633
351.900000	16.997562
351.800000	16.667622
351.700000	16.350955
351.600000	16.020971
351.500000	15.704673
351.400000	15.420665
351.300000	15.085804
351.200000	14.749245
351.100000	14.446126
351.000000	14.128566
350.900000	13.815600
350.800000	13.530776
350.700000	13.235821
350.600000	12.922461
350.500000	12.639600
350.400000	12.329947
350.300000	12.070666
350.200000	11.771995
350.100000	11.474451
350.000000	11.215675
349.900000	10.956458
349.800000	10.695422
349.700000	10.436108
349.600000	10.158773
349.500000	9.909208
349.400000	9.653799
349.300000	9.379258
349.200000	9.137866
349.100000	8.902776
349.000000	8.664430
348.900000	8.444248
348.800000	8.208342
348.700000	7.976096
348.600000	7.755828
348.500000	7.538303
348.400000	7.326041
348.300000	7.109265
348.200000	6.898187
348.100000	6.688328
348.000000	6.505188
347.900000	6.322907
347.800000	6.120054
347.700000	5.946367
347.600000	5.769372
347.500000	5.582419
347.400000	5.415623
347.300000	5.236481
347.200000	5.072680
347.100000	4.918890
347.000000	4.740064
346.900000	4.569495
346.800000	4.436996
346.700000	4.286210
346.600000	4.133612
346.500000	3.995241
346.400000	3.848841
346.300000	3.727045
346.200000	3.612997
346.100000	3.479813
346.000000	3.346697
345.900000	3.231539
345.800000	3.125903
345.700000	3.010538
345.600000	2.910430
345.500000	2.807040
345.400000	2.676414
345.300000	2.567221
345.200000	2.481418
345.100000	2.385929
345.000000	2.307321
344.900000	2.215438
344.800000	2.106714
344.700000	2.024534
344.600000	1.951452
344.500000	1.877271
344.400000	1.809093
344.300000	1.732825
344.200000	1.664710
344.100000	1.607950
344.000000	1.535313
343.900000	1.462278
343.800000	1.406969
343.700000	1.335494
343.600000	1.268047
343.500000	1.232810
343.400000	1.174670
343.300000	1.115127
343.200000	1.072702
343.100000	1.024161
343.000000	0.971347
342.900000	0.933046
342.800000	0.893143
342.700000	0.839795
342.600000	0.808011
342.500000	0.770303
342.400000	0.720610
342.300000	0.687253
342.200000	0.657214
342.100000	0.628399
342.000000	0.603005
341.900000	0.567631
341.800000	0.537221
341.700000	0.516716
341.600000	0.493665
341.500000	0.456116
341.400000	0.433295
341.300000	0.411623
341.200000	0.382702
341.100000	0.376467
341.000000	0.365312
340.900000	0.316682
340.800000	0.294048
340.700000	0.289609
340.600000	0.274331
340.500000	0.266147
340.400000	0.254328
340.300000	0.220899
340.200000	0.205465
340.100000	0.203490
340.000000	0.154076
339.900000	0.146598
339.800000	0.126910
339.700000	0.101423
339.600000	0.105153
339.500000	0.103732
339.400000	0.085698
339.300000	0.088839
339.200000	0.080271
339.100000	0.056698
339.000000	0.068274
338.900000	0.068190
338.800000	0.050001
338.700000	0.049443
338.600000	0.048282
338.500000	0.022943
338.400000	0.044772
338.300000	0.054030
338.200000	0.029358
338.100000	0.029718
338.000000	0.040597
337.900000	0.015954
337.800000	0.023889
337.700000	0.023989
337.600000	0.015012
337.500000	0.015760
337.400000	0.025282
337.300000	0.011093
337.200000	0.014581
337.100000	0.017446
337.000000	0.000000
336.900000	-0.012221
336.800000	0.009229
336.700000	-0.001400
336.600000	-0.009712
336.500000	0.018492
336.400000	0.003084
336.300000	0.001961
336.200000	0.004855
336.100000	-0.008206
336.000000	-0.006450
335.900000	0.006914
335.800000	-0.002054
335.700000	-0.010081
335.600000	0.011684
335.500000	0.007287
335.400000	-0.019248
335.300000	0.020555
335.200000	-0.003077
335.100000	-0.013926
335.000000	0.021796
334.900000	0.003178
334.800000	-0.010735
334.700000	0.010831
334.600000	0.004855
334.500000	-0.008220
334.400000	0.008309
334.300000	0.010927
334.200000	-0.004670
334.100000	0.031030
334.000000	0.018029
333.900000	-0.009820
333.800000	0.011304
333.700000	0.004863
333.600000	-0.015230
333.500000	0.011207
333.400000	0.011672
333.300000	-0.006447
333.200000	0.010278
333.100000	0.011957
333.000000	-0.021103
332.900000	0.001215
332.800000	0.003265
332.700000	-0.023203
332.600000	-0.000653
332.500000	0.015692
332.400000	-0.003647
332.300000	0.004766
332.200000	0.008585
332.100000	-0.009999
332.000000	0.012621
331.900000	0.006169
331.800000	-0.019249
331.700000	0.003091
331.600000	0.012536
331.500000	-0.020971
331.400000	0.008052
331.300000	0.012627
331.200000	-0.016280
331.100000	0.001589
331.000000	0.008989
330.900000	-0.013022
330.800000	0.005151
330.700000	0.014396
330.600000	-0.008799
330.500000	-0.000000
330.400000	0.003833
330.300000	-0.004959
330.200000	-0.006174
330.100000	0.005618
330.000000	-0.017946
329.900000	0.007673
329.800000	0.014812
329.700000	-0.008518
329.600000	0.009451
329.500000	0.012823
329.400000	-0.007307
329.300000	0.015724
329.200000	0.018444
329.100000	-0.015005
329.000000	0.008984
328.900000	0.007213
328.800000	-0.012181
328.700000	0.008342
328.600000	0.000000
328.500000	-0.018734
328.400000	-0.004026
328.300000	0.021272
328.200000	-0.003932
328.100000	0.007683
328.000000	0.009089
327.900000	-0.005619
327.800000	0.011343
327.700000	0.010874
327.600000	-0.012650
327.500000	0.005615
327.400000	0.003931
327.300000	-0.013585
327.200000	0.003843
327.100000	-0.002248
327.000000	-0.016021
326.900000	0.009286
326.800000	0.006656
326.700000	-0.007309
326.600000	0.008436
326.500000	0.004970
326.400000	-0.006752
326.300000	-0.009655
326.200000	-0.005438
326.100000	-0.009563
326.000000	0.005906
325.900000	0.001969
325.800000	-0.004310
325.700000	0.013975
325.600000	0.003372
325.500000	-0.011345
325.400000	0.005254
325.300000	0.005621
325.200000	0.001124
325.100000	0.012091
325.000000	0.004217
324.900000	0.000750
324.800000	0.019038
324.700000	0.001218
324.600000	-0.008340
324.500000	0.011631
324.400000	0.000938
324.300000	-0.004310
324.200000	0.005996
324.100000	-0.005250
324.000000	-0.011446
323.900000	0.008907
323.800000	-0.004125
323.700000	-0.005063
323.600000	0.013511
323.500000	0.006290
323.400000	0.003469
323.300000	0.009186
323.200000	-0.004596
323.100000	-0.003378
323.000000	0.014346
322.900000	-0.001126
322.800000	-0.005537
322.700000	0.002908
322.600000	-0.005350
322.500000	0.003096
322.400000	-0.000188
322.300000	-0.010416
322.200000	-0.003565
322.100000	-0.002534
322.000000	-0.008545
321.900000	-0.005820
321.800000	-0.005720
321.700000	-0.005441
321.600000	0.001973
321.500000	0.002536
321.400000	-0.008543
321.300000	0.004036
321.200000	0.006574
321.100000	0.000188
321.000000	0.009958
320.900000	0.008737
320.800000	-0.000094
320.700000	0.007518
320.600000	0.006105
320.500000	-0.000000
320.400000	0.010992
320.300000	0.005071
320.200000	-0.007049
320.100000	0.000564
320.000000	-0.001597
319.900000	-0.008449
319.800000	0.004883
319.700000	0.007987
319.600000	0.005639
319.500000	0.007049
319.400000	-0.006577
319.300000	-0.006763
319.200000	0.005741
319.100000	0.006508
319.000000	0.000094
318.900000	-0.004906
318.800000	-0.000378
318.700000	-0.005096
318.600000	-0.006511
318.500000	0.001605
318.400000	-0.004340
318.300000	-0.005851
318.200000	0.005758
318.100000	0.005191
318.000000	-0.000850
317.900000	0.002643
317.800000	-0.001697
317.700000	-0.000566
317.600000	0.007172
317.500000	0.001888
317.400000	0.001322
317.300000	0.012375
317.200000	0.009072
317.100000	0.004157
317.000000	0.003212
316.900000	-0.004439
316.800000	-0.001889
316.700000	0.005383
316.600000	-0.001794
316.500000	-0.005098
316.400000	0.003871
316.300000	0.000851
316.200000	0.004344
316.100000	0.007929
316.000000	-0.003493
315.900000	-0.002833
315.800000	0.000662
315.700000	-0.010114
315.600000	-0.001323
315.500000	0.011811
315.400000	-0.004442
315.300000	-0.006522
315.200000	0.002268
315.100000	-0.001039
315.000000	0.003592
314.900000	0.004064
314.800000	-0.000284
314.700000	0.007088
314.600000	0.008884
314.500000	-0.003688
314.400000	-0.001041
314.300000	-0.004445
314.200000	-0.005956
314.100000	0.005199
314.000000	0.003405
313.900000	-0.005010
313.800000	0.006426
313.700000	-0.002080
313.600000	-0.010021
313.500000	0.001229
313.400000	0.002742
313.300000	-0.005866
313.200000	0.000852
313.100000	-0.002647
313.000000	-0.004353
312.900000	0.008608
312.800000	-0.001798
312.700000	-0.006151
312.600000	0.005105
312.500000	0.005769
312.400000	-0.008988
312.300000	-0.000189
312.200000	-0.002364
312.100000	-0.005017
312.000000	0.001609
311.900000	-0.001325
311.800000	-0.001230
311.700000	0.002651
311.600000	-0.005868
311.500000	-0.005017
311.400000	0.001326
311.300000	0.001515
311.200000	-0.002082
311.100000	0.000473
311.000000	-0.010893
310.900000	-0.006725
310.800000	-0.001609
310.700000	-0.003222
310.600000	0.002274
310.500000	0.003033
310.400000	-0.006534
310.300000	0.003412
310.200000	0.001989
310.100000	-0.008524
310.000000	-0.001043
309.900000	0.001896
309.800000	-0.004835
309.700000	-0.001989
309.600000	0.008147
309.500000	-0.004359
309.400000	0.000948
309.300000	0.007860
309.200000	0.000948
309.100000	0.006065
309.000000	0.009578
308.900000	0.004838
308.800000	0.008731
308.700000	0.011385
308.600000	-0.003033
308.500000	0.000379
308.400000	0.001044
308.300000	-0.003702
308.200000	0.003799
308.100000	0.007022
308.000000	0.001330
307.900000	0.009216
307.800000	0.006174
307.700000	-0.005796
307.600000	0.003991
307.500000	0.003229
307.400000	-0.006085
307.300000	0.010263
307.200000	-0.002947
307.100000	-0.002472
307.000000	-0.002187
306.900000	0.004371
306.800000	-0.005040
306.700000	-0.001424
306.600000	0.006374
306.500000	0.002659
306.400000	0.010358
306.300000	0.005806
306.200000	0.000285
306.100000	0.001998
306.000000	0.004285
305.900000	-0.003617
305.800000	0.000476
305.700000	-0.003427
305.600000	0.000095
305.500000	0.005802
305.400000	0.011323
305.300000	-0.002857
305.200000	0.001619
305.100000	0.008570
305.000000	-0.005622
304.900000	-0.001429
304.800000	0.005529
304.700000	-0.000191
304.600000	0.009528
304.500000	0.002003
304.400000	-0.001716
304.300000	-0.006576
304.200000	0.001811
304.100000	0.002575
304.000000	-0.001336
303.900000	0.004002
303.800000	-0.003049
303.700000	-0.004384
303.600000	-0.000286
303.500000	-0.000191
303.400000	0.000954
303.300000	0.000286
303.200000	-0.000764
303.100000	-0.005535
303.000000	-0.001240
302.900000	-0.002479
302.800000	0.001909
302.700000	0.011919
302.600000	0.007060
302.500000	0.005058
302.400000	0.007249
302.300000	-0.003152
302.200000	-0.005637
302.100000	0.003057
302.000000	0.002291
301.900000	0.008117
301.800000	0.006592
301.700000	-0.000860
301.600000	0.000191
301.500000	0.000764
301.400000	-0.005249
301.300000	-0.000859
301.200000	0.004970
301.100000	-0.000287
301.000000	0.002866
300.900000	0.007069
300.800000	-0.003633
300.700000	-0.003920
300.600000	0.005352
300.500000	-0.002007
300.400000	-0.001719
300.300000	0.004777
300.200000	-0.010613
300.100000	-0.002296
300.000000	0.004784
