PE UV       SUBTECH     SPECTRUM    ASCII       PEDS        4.00        
   -1
Sample20.Sample.Raw.asc
21/03/30
12:09:26.00
21/03/30
12:09:26.00
Administrator

300.000000
1
Lambda 850
850L1710193
PerkinElmer UV WinLab 6.4.0.973 / 2.02.06 Lambda 800 UV/VIS, Jan 28 2016 16:58:34

0
0
2
0
0
UV/VIS
1
1
1
RBeamAtt,SBeamAtt,60mm sphere
0
0
0
0
Fix
 
0
0.2
0
0
0
 
 
 
0
 
0
340
0
Front
100
 
S:100 R:100
 
0
0
0
 
0
 
 
 
0
 
 
0
0
0
0
0
 
 
 
 
0
0


0
0
#HDR
-1
-1
#GR
nm
%T
1.0
0.0
750.000000
-1.500000
301
8
72.315140
-0.030336
#DATA
750.000000	72.053324
748.500000	72.059787
747.000000	72.315140
745.500000	72.189277
744.000000	72.087748
742.500000	72.120807
741.000000	72.021570
739.500000	71.851223
738.000000	72.024280
736.500000	72.021309
735.000000	71.925679
733.500000	71.877981
732.000000	72.072924
730.500000	72.090272
729.000000	71.949766
727.500000	71.867611
726.000000	71.812228
724.500000	71.756913
723.000000	71.852513
721.500000	71.865576
720.000000	71.755470
718.500000	71.781052
717.000000	71.771155
715.500000	71.749243
714.000000	71.671884
712.500000	71.739513
711.000000	71.704609
709.500000	71.725943
708.000000	71.719381
706.500000	71.600653
705.000000	71.567240
703.500000	71.556768
702.000000	71.624518
700.500000	71.503747
699.000000	71.485561
697.500000	71.474525
696.000000	71.557406
694.500000	71.478257
693.000000	71.355277
691.500000	71.332283
690.000000	71.254085
688.500000	71.274586
687.000000	71.299474
685.500000	71.216339
684.000000	71.286030
682.500000	71.216903
681.000000	71.184737
679.500000	71.170617
678.000000	71.213137
676.500000	71.068050
675.000000	71.048798
673.500000	70.939690
672.000000	70.956380
670.500000	70.968272
669.000000	70.903396
667.500000	70.799348
666.000000	70.745961
664.500000	70.661512
663.000000	70.608191
661.500000	70.613336
660.000000	70.541645
658.500000	70.512418
657.000000	70.459766
655.500000	70.395106
654.000000	70.375105
652.500000	70.278203
651.000000	70.156245
649.500000	70.039761
648.000000	70.033026
646.500000	69.946854
645.000000	69.827806
643.500000	69.829165
642.000000	69.750174
640.500000	69.661854
639.000000	69.569112
637.500000	69.474879
636.000000	69.373419
634.500000	69.342271
633.000000	69.248559
631.500000	69.108839
630.000000	69.047739
628.500000	68.963180
627.000000	68.887685
625.500000	68.831425
624.000000	68.708915
622.500000	68.624479
621.000000	68.493556
619.500000	68.432102
618.000000	68.313247
616.500000	68.209778
615.000000	68.161650
613.500000	67.999921
612.000000	67.876182
610.500000	67.803927
609.000000	67.726212
607.500000	67.590192
606.000000	67.484868
604.500000	67.384336
603.000000	67.282005
601.500000	67.176913
600.000000	67.061201
598.500000	66.955383
597.000000	66.853551
595.500000	66.767614
594.000000	66.637208
592.500000	66.537479
591.000000	66.464476
589.500000	66.366692
588.000000	66.271999
586.500000	66.164649
585.000000	66.065091
583.500000	65.928247
582.000000	65.811032
580.500000	65.727106
579.000000	65.641743
577.500000	65.522546
576.000000	65.395305
574.500000	65.293509
573.000000	65.175004
571.500000	65.066205
570.000000	64.956851
568.500000	64.833944
567.000000	64.685477
565.500000	64.549111
564.000000	64.450801
562.500000	64.359359
561.000000	64.403911
559.500000	64.408320
558.000000	64.342271
556.500000	64.259068
555.000000	64.122329
553.500000	64.031344
552.000000	63.924320
550.500000	63.839185
549.000000	63.746710
547.500000	63.660260
546.000000	63.559321
544.500000	63.457850
543.000000	63.379792
541.500000	63.291350
540.000000	63.192532
538.500000	63.107902
537.000000	63.045507
535.500000	62.962241
534.000000	62.874977
532.500000	62.787765
531.000000	62.699689
529.500000	62.600642
528.000000	62.523658
526.500000	62.463188
525.000000	62.349537
523.500000	62.241792
522.000000	62.130261
520.500000	62.014085
519.000000	61.878890
517.500000	61.749876
516.000000	61.587660
514.500000	61.399805
513.000000	61.190375
511.500000	60.971909
510.000000	60.747239
508.500000	60.557558
507.000000	60.393124
505.500000	60.228970
504.000000	60.172394
502.500000	60.151201
501.000000	60.192942
499.500000	60.242857
498.000000	60.361938
496.500000	60.473240
495.000000	60.632537
493.500000	60.793051
492.000000	60.929551
490.500000	61.027751
489.000000	61.141052
487.500000	61.222961
486.000000	61.338343
484.500000	61.444858
483.000000	61.624270
481.500000	61.826982
480.000000	61.788892
478.500000	61.457665
477.000000	61.193914
475.500000	60.999644
474.000000	60.880197
472.500000	60.690506
471.000000	60.530471
469.500000	60.351029
468.000000	60.110552
466.500000	59.922853
465.000000	59.671325
463.500000	59.517676
462.000000	59.343780
460.500000	59.242562
459.000000	59.191473
457.500000	59.198638
456.000000	59.203737
454.500000	59.191378
453.000000	59.233448
451.500000	59.296143
450.000000	59.313649
448.500000	59.378094
447.000000	59.407528
445.500000	59.406560
444.000000	59.665569
442.500000	59.739506
441.000000	59.642323
439.500000	59.509956
438.000000	59.483072
436.500000	59.384085
435.000000	59.291280
433.500000	59.242196
432.000000	59.139615
430.500000	59.075993
429.000000	59.061798
427.500000	58.935117
426.000000	58.886413
424.500000	58.817266
423.000000	58.714776
421.500000	58.605050
420.000000	58.596451
418.500000	58.459557
417.000000	58.408545
415.500000	58.338636
414.000000	58.194263
412.500000	58.147330
411.000000	58.082490
409.500000	58.008836
408.000000	57.873907
406.500000	57.720318
405.000000	57.637436
403.500000	57.615926
402.000000	57.484752
400.500000	57.355126
399.000000	57.329458
397.500000	57.159019
396.000000	57.094466
394.500000	57.021261
393.000000	56.953145
391.500000	56.759207
390.000000	56.634774
388.500000	56.561710
387.000000	56.430401
385.500000	56.297996
384.000000	56.100767
382.500000	55.870507
381.000000	55.677371
379.500000	55.339837
378.000000	55.328306
376.500000	55.497953
375.000000	55.824680
373.500000	54.836619
372.000000	53.827296
370.500000	52.965016
369.000000	51.817350
367.500000	50.458867
366.000000	48.729791
364.500000	46.839226
363.000000	44.488665
361.500000	41.688497
360.000000	38.471442
358.500000	34.743398
357.000000	30.647599
355.500000	26.024781
354.000000	21.315219
352.500000	16.647302
351.000000	12.309653
349.500000	8.620278
348.000000	5.626162
346.500000	3.414088
345.000000	1.960931
343.500000	1.056663
342.000000	0.518768
340.500000	0.240924
339.000000	0.055340
337.500000	-0.010667
336.000000	-0.028325
334.500000	-0.025090
333.000000	-0.023271
331.500000	-0.021623
330.000000	-0.024900
328.500000	-0.019194
327.000000	-0.025552
325.500000	-0.026439
324.000000	-0.024579
322.500000	-0.028293
321.000000	-0.023852
319.500000	-0.020696
318.000000	0.005555
316.500000	-0.021723
315.000000	-0.027093
313.500000	-0.030336
312.000000	-0.024674
310.500000	-0.022727
309.000000	-0.017464
307.500000	-0.012297
306.000000	-0.007577
304.500000	-0.006273
303.000000	-0.005798
301.500000	-0.012272
300.000000	-0.009995
