PE UV       SUBTECH     SPECTRUM    ASCII       PEDS        4.00        
   -1
Sample49.Sample.Raw.asc
20/12/15
15:37:32.00
20/12/15
15:37:32.00
Administrator

300.000000
1
Lambda 850
850L1710193
PerkinElmer UV WinLab 6.4.0.973 / 2.02.06 Lambda 800 UV/VIS, Jan 28 2016 16:58:34

0
0
2
0
0
UV/VIS
1
1
1
RBeamAtt,SBeamAtt,60mm sphere
0
0
0
0
Fix
 
0
0.2
0
0
0
 
 
 
0
 
0
319.2
0
Front
100
 
S:100 R:100
 
0
0
0
 
0
 
 
 
0
 
 
0
0
0
0
0
 
 
 
 
0
0


0
0
#HDR
-1
-1
#GR
nm
%T
1.0
0.0
750.000000
-1.500000
301
8
74.348030
-0.025127
#DATA
750.000000	73.835963
748.500000	74.219808
747.000000	74.247677
745.500000	74.328782
744.000000	74.348030
742.500000	74.204719
741.000000	74.265958
739.500000	74.142259
738.000000	74.158508
736.500000	74.139284
735.000000	74.239662
733.500000	74.153218
732.000000	74.204468
730.500000	74.195718
729.000000	74.118163
727.500000	74.106218
726.000000	74.043311
724.500000	74.215642
723.000000	74.078082
721.500000	74.082127
720.000000	74.063715
718.500000	74.032947
717.000000	74.019532
715.500000	73.979125
714.000000	74.058215
712.500000	73.929699
711.000000	74.130306
709.500000	73.859694
708.000000	74.006031
706.500000	73.985109
705.000000	73.956222
703.500000	73.965364
702.000000	73.893775
700.500000	73.922991
699.000000	73.965229
697.500000	73.813085
696.000000	73.860023
694.500000	73.813906
693.000000	73.712824
691.500000	73.794950
690.000000	73.742606
688.500000	73.907519
687.000000	73.844198
685.500000	73.862831
684.000000	73.833663
682.500000	73.799363
681.000000	73.767221
679.500000	73.799421
678.000000	73.718880
676.500000	73.714340
675.000000	73.795135
673.500000	73.672584
672.000000	73.659811
670.500000	73.667345
669.000000	73.679020
667.500000	73.679310
666.000000	73.632930
664.500000	73.664539
663.000000	73.701740
661.500000	73.694237
660.000000	73.570738
658.500000	73.561166
657.000000	73.549839
655.500000	73.535984
654.000000	73.553712
652.500000	73.492979
651.000000	73.519983
649.500000	73.499401
648.000000	73.492704
646.500000	73.570871
645.000000	73.474487
643.500000	73.469215
642.000000	73.497048
640.500000	73.429459
639.000000	73.420055
637.500000	73.409143
636.000000	73.342018
634.500000	73.351443
633.000000	73.388145
631.500000	73.384505
630.000000	73.334338
628.500000	73.358451
627.000000	73.335387
625.500000	73.270188
624.000000	73.291656
622.500000	73.281707
621.000000	73.247936
619.500000	73.232768
618.000000	73.196654
616.500000	73.194154
615.000000	73.206957
613.500000	73.182910
612.000000	73.115576
610.500000	73.115566
609.000000	73.105782
607.500000	73.061943
606.000000	73.034477
604.500000	72.966990
603.000000	72.969283
601.500000	72.981273
600.000000	72.987571
598.500000	72.975187
597.000000	72.958018
595.500000	72.942554
594.000000	72.906818
592.500000	72.870585
591.000000	72.864395
589.500000	72.862402
588.000000	72.813663
586.500000	72.785458
585.000000	72.814758
583.500000	72.773157
582.000000	72.741608
580.500000	72.735067
579.000000	72.711895
577.500000	72.677826
576.000000	72.663007
574.500000	72.651398
573.000000	72.649561
571.500000	72.636345
570.000000	72.590011
568.500000	72.545901
567.000000	72.493121
565.500000	72.437305
564.000000	72.349367
562.500000	72.337703
561.000000	72.465700
559.500000	72.576971
558.000000	72.610392
556.500000	72.580113
555.000000	72.528332
553.500000	72.530168
552.000000	72.523931
550.500000	72.492301
549.000000	72.475021
547.500000	72.453258
546.000000	72.430856
544.500000	72.423329
543.000000	72.402983
541.500000	72.358933
540.000000	72.329672
538.500000	72.332979
537.000000	72.309447
535.500000	72.282000
534.000000	72.270811
532.500000	72.252069
531.000000	72.233682
529.500000	72.204841
528.000000	72.175361
526.500000	72.144961
525.000000	72.106142
523.500000	72.079546
522.000000	72.019038
520.500000	71.940824
519.000000	71.834616
517.500000	71.703870
516.000000	71.540998
514.500000	71.353874
513.000000	71.130997
511.500000	70.911148
510.000000	70.661224
508.500000	70.415100
507.000000	70.194785
505.500000	70.041735
504.000000	69.920907
502.500000	69.847730
501.000000	69.834671
499.500000	69.930589
498.000000	70.028203
496.500000	70.079699
495.000000	70.213129
493.500000	70.349728
492.000000	70.545709
490.500000	70.675279
489.000000	70.815559
487.500000	70.964828
486.000000	71.074837
484.500000	71.260717
483.000000	71.519971
481.500000	71.851935
480.000000	71.863827
478.500000	71.604551
477.000000	71.350933
475.500000	71.180723
474.000000	71.055179
472.500000	70.914089
471.000000	70.697604
469.500000	70.506143
468.000000	70.236279
466.500000	70.013202
465.000000	69.757432
463.500000	69.499831
462.000000	69.293857
460.500000	69.192656
459.000000	69.039872
457.500000	69.008396
456.000000	69.021679
454.500000	69.044486
453.000000	69.036258
451.500000	69.049532
450.000000	69.095223
448.500000	69.128696
447.000000	69.125909
445.500000	69.134539
444.000000	69.389880
442.500000	69.527349
441.000000	69.492406
439.500000	69.396932
438.000000	69.257503
436.500000	69.244249
435.000000	69.106299
433.500000	69.112675
432.000000	69.048577
430.500000	68.941372
429.000000	68.903534
427.500000	68.835010
426.000000	68.734466
424.500000	68.709844
423.000000	68.589517
421.500000	68.472302
420.000000	68.409446
418.500000	68.329473
417.000000	68.233701
415.500000	68.120809
414.000000	68.098246
412.500000	67.903125
411.000000	67.929642
409.500000	67.755035
408.000000	67.634884
406.500000	67.538813
405.000000	67.434636
403.500000	67.311937
402.000000	67.259293
400.500000	67.060260
399.000000	66.924321
397.500000	66.833008
396.000000	66.665522
394.500000	66.531225
393.000000	66.366823
391.500000	66.228410
390.000000	66.021218
388.500000	65.797012
387.000000	65.650655
385.500000	65.364588
384.000000	65.061196
382.500000	64.781657
381.000000	64.360028
379.500000	64.024920
378.000000	63.674948
376.500000	64.086643
375.000000	64.053403
373.500000	62.995336
372.000000	61.619594
370.500000	60.176455
369.000000	58.532765
367.500000	56.733089
366.000000	54.559769
364.500000	51.880640
363.000000	48.954342
361.500000	45.256257
360.000000	41.198164
358.500000	36.658571
357.000000	31.623346
355.500000	26.291163
354.000000	20.903419
352.500000	15.794965
351.000000	11.284741
349.500000	7.526752
348.000000	4.722767
346.500000	2.751024
345.000000	1.495800
343.500000	0.766056
342.000000	0.363596
340.500000	0.166180
339.000000	0.074650
337.500000	0.047991
336.000000	0.033154
334.500000	0.026728
333.000000	0.040366
331.500000	0.040284
330.000000	0.036796
328.500000	0.037521
327.000000	0.040579
325.500000	0.041759
324.000000	0.054317
322.500000	0.033675
321.000000	0.034480
319.500000	0.038166
318.000000	0.012417
316.500000	-0.015401
315.000000	-0.017940
313.500000	-0.024541
312.000000	-0.025127
310.500000	-0.024765
309.000000	-0.019619
307.500000	-0.016545
306.000000	-0.007581
304.500000	-0.007778
303.000000	-0.011222
301.500000	-0.012175
300.000000	-0.015216
