PE UV       SUBTECH     SPECTRUM    ASCII       PEDS        4.00        
   -1
Sample48.Sample.Raw.asc
20/12/15
15:33:45.00
20/12/15
15:33:45.00
Administrator

300.000000
1
Lambda 850
850L1710193
PerkinElmer UV WinLab 6.4.0.973 / 2.02.06 Lambda 800 UV/VIS, Jan 28 2016 16:58:34

0
0
2
0
0
UV/VIS
1
1
1
RBeamAtt,SBeamAtt,60mm sphere
0
0
0
0
Fix
 
0
0.2
0
0
0
 
 
 
0
 
0
319.2
0
Front
100
 
S:100 R:100
 
0
0
0
 
0
 
 
 
0
 
 
0
0
0
0
0
 
 
 
 
0
0


0
0
#HDR
-1
-1
#GR
nm
%T
1.0
0.0
750.000000
-1.500000
301
8
75.730957
-0.034652
#DATA
750.000000	75.168688
748.500000	75.550648
747.000000	75.597858
745.500000	75.730957
744.000000	75.703151
742.500000	75.723576
741.000000	75.487935
739.500000	75.445547
738.000000	75.684557
736.500000	75.607169
735.000000	75.619563
733.500000	75.541206
732.000000	75.468944
730.500000	75.420955
729.000000	75.498060
727.500000	75.335945
726.000000	75.398276
724.500000	75.507110
723.000000	75.355551
721.500000	75.424598
720.000000	75.290662
718.500000	75.435166
717.000000	75.362087
715.500000	75.284021
714.000000	75.337495
712.500000	75.239642
711.000000	75.510096
709.500000	75.302303
708.000000	75.292341
706.500000	75.354567
705.000000	75.314002
703.500000	75.297827
702.000000	75.290734
700.500000	75.239365
699.000000	75.319316
697.500000	75.134915
696.000000	75.186775
694.500000	75.185811
693.000000	75.102228
691.500000	75.164542
690.000000	74.990979
688.500000	75.204317
687.000000	75.182551
685.500000	75.195539
684.000000	75.141333
682.500000	75.122237
681.000000	75.144318
679.500000	75.134554
678.000000	75.086304
676.500000	75.048442
675.000000	75.024060
673.500000	75.004015
672.000000	74.997069
670.500000	75.031954
669.000000	75.011794
667.500000	75.043313
666.000000	74.963383
664.500000	74.990808
663.000000	75.015692
661.500000	74.998624
660.000000	74.926083
658.500000	74.911741
657.000000	74.904590
655.500000	74.855459
654.000000	74.837320
652.500000	74.825433
651.000000	74.875340
649.500000	74.893261
648.000000	74.832806
646.500000	74.838018
645.000000	74.802983
643.500000	74.785582
642.000000	74.827216
640.500000	74.740372
639.000000	74.746974
637.500000	74.730876
636.000000	74.693998
634.500000	74.689930
633.000000	74.670071
631.500000	74.649937
630.000000	74.634441
628.500000	74.653845
627.000000	74.651013
625.500000	74.654944
624.000000	74.642469
622.500000	74.592139
621.000000	74.596892
619.500000	74.610140
618.000000	74.547674
616.500000	74.495777
615.000000	74.508815
613.500000	74.525204
612.000000	74.494034
610.500000	74.444076
609.000000	74.412048
607.500000	74.381738
606.000000	74.351434
604.500000	74.317453
603.000000	74.352857
601.500000	74.364664
600.000000	74.338650
598.500000	74.333809
597.000000	74.333879
595.500000	74.308931
594.000000	74.295615
592.500000	74.266372
591.000000	74.216663
589.500000	74.186695
588.000000	74.194546
586.500000	74.210064
585.000000	74.178282
583.500000	74.143408
582.000000	74.162293
580.500000	74.142912
579.000000	74.098258
577.500000	74.104495
576.000000	74.129339
574.500000	74.125479
573.000000	74.074942
571.500000	74.035330
570.000000	73.995344
568.500000	73.982694
567.000000	73.937265
565.500000	73.869312
564.000000	73.821185
562.500000	73.843035
561.000000	73.970828
559.500000	74.065634
558.000000	74.075682
556.500000	74.104036
555.000000	74.084538
553.500000	74.072683
552.000000	74.069209
550.500000	74.069928
549.000000	74.058255
547.500000	74.013444
546.000000	74.045625
544.500000	74.080695
543.000000	74.071803
541.500000	74.050899
540.000000	74.051187
538.500000	74.066434
537.000000	74.057769
535.500000	74.055311
534.000000	74.067548
532.500000	74.098123
531.000000	74.091499
529.500000	74.083717
528.000000	74.070629
526.500000	74.047522
525.000000	74.047546
523.500000	74.013372
522.000000	73.952376
520.500000	73.898508
519.000000	73.814651
517.500000	73.680359
516.000000	73.520320
514.500000	73.350735
513.000000	73.121185
511.500000	72.868545
510.000000	72.606531
508.500000	72.348408
507.000000	72.127040
505.500000	71.924831
504.000000	71.729576
502.500000	71.628647
501.000000	71.618118
499.500000	71.638911
498.000000	71.649170
496.500000	71.670774
495.000000	71.769428
493.500000	71.846171
492.000000	72.018967
490.500000	72.099400
489.000000	72.238029
487.500000	72.371433
486.000000	72.493137
484.500000	72.740523
483.000000	73.084362
481.500000	73.483145
480.000000	73.678508
478.500000	73.492574
477.000000	73.276412
475.500000	73.137078
474.000000	73.021477
472.500000	72.911562
471.000000	72.760384
469.500000	72.612227
468.000000	72.358990
466.500000	72.138012
465.000000	71.840134
463.500000	71.577896
462.000000	71.327460
460.500000	71.193837
459.000000	71.057272
457.500000	70.985616
456.000000	70.919154
454.500000	70.931429
453.000000	70.850634
451.500000	70.851408
450.000000	70.838136
448.500000	70.866629
447.000000	70.811206
445.500000	70.835596
444.000000	71.126668
442.500000	71.234495
441.000000	71.218363
439.500000	71.140445
438.000000	71.010170
436.500000	70.963301
435.000000	70.890070
433.500000	70.844855
432.000000	70.893538
430.500000	70.780838
429.000000	70.748493
427.500000	70.693470
426.000000	70.550010
424.500000	70.526245
423.000000	70.428444
421.500000	70.331499
420.000000	70.279248
418.500000	70.190195
417.000000	70.118399
415.500000	69.980048
414.000000	69.959705
412.500000	69.805816
411.000000	69.810063
409.500000	69.695585
408.000000	69.665394
406.500000	69.558113
405.000000	69.435163
403.500000	69.352514
402.000000	69.255764
400.500000	69.051110
399.000000	69.006793
397.500000	68.901202
396.000000	68.828722
394.500000	68.686688
393.000000	68.564082
391.500000	68.457232
390.000000	68.333231
388.500000	68.162863
387.000000	67.991738
385.500000	67.790972
384.000000	67.591284
382.500000	67.357896
381.000000	66.942180
379.500000	66.676795
378.000000	66.620895
376.500000	67.249476
375.000000	67.286232
373.500000	66.500169
372.000000	65.552066
370.500000	64.506804
369.000000	63.180908
367.500000	61.787620
366.000000	60.200513
364.500000	58.291300
363.000000	56.011769
361.500000	53.217872
360.000000	50.020900
358.500000	46.291127
357.000000	42.040988
355.500000	37.246028
354.000000	31.879692
352.500000	26.559104
351.000000	21.170712
349.500000	15.973850
348.000000	11.363521
346.500000	7.523074
345.000000	4.492930
343.500000	2.438991
342.000000	1.136747
340.500000	0.461592
339.000000	0.171529
337.500000	0.072264
336.000000	0.054547
334.500000	0.052343
333.000000	0.046754
331.500000	0.050309
330.000000	0.044582
328.500000	0.050523
327.000000	0.041229
325.500000	0.059430
324.000000	0.045667
322.500000	0.035814
321.000000	0.036437
319.500000	0.041432
318.000000	0.000847
316.500000	-0.025825
315.000000	-0.031560
313.500000	-0.033756
312.000000	-0.030491
310.500000	-0.034652
309.000000	-0.027353
307.500000	-0.023825
306.000000	-0.015163
304.500000	-0.007778
303.000000	-0.008274
301.500000	-0.019308
300.000000	-0.017879
