PE UV       SUBTECH     SPECTRUM    ASCII       PEDS        4.00        
   -1
Sample119.Sample.Raw.asc
20/12/17
15:59:22.00
20/12/17
15:59:22.00
Administrator

300.000000
1
Lambda 850
850L1710193
PerkinElmer UV WinLab 6.4.0.973 / 2.02.06 Lambda 800 UV/VIS, Jan 28 2016 16:58:34

0
0
2
0
0
UV/VIS
1
1
1
RBeamAtt,SBeamAtt,60mm sphere
0
0
0
0
Fix
 
0
0.2
0
0
0
 
 
 
0
 
0
319.2
0
Front
100
 
S:100 R:100
 
0
0
0
 
0
 
 
 
0
 
 
0
0
0
0
0
 
 
 
 
0
0


0
0
#HDR
-1
-1
#GR
nm
%T
1.0
0.0
750.000000
-1.500000
301
8
74.651251
-0.038847
#DATA
750.000000	74.388424
748.500000	74.651251
747.000000	74.541408
745.500000	74.549427
744.000000	74.587273
742.500000	74.489102
741.000000	74.562205
739.500000	74.461726
738.000000	74.502452
736.500000	74.423610
735.000000	74.529034
733.500000	74.536077
732.000000	74.619252
730.500000	74.370676
729.000000	74.387328
727.500000	74.457556
726.000000	74.410187
724.500000	74.532492
723.000000	74.560618
721.500000	74.428040
720.000000	74.354147
718.500000	74.366325
717.000000	74.430186
715.500000	74.420822
714.000000	74.367654
712.500000	74.345259
711.000000	74.362446
709.500000	74.388775
708.000000	74.380507
706.500000	74.392850
705.000000	74.339411
703.500000	74.428496
702.000000	74.396456
700.500000	74.403331
699.000000	74.229011
697.500000	74.283181
696.000000	74.294403
694.500000	74.220433
693.000000	74.200168
691.500000	74.161722
690.000000	74.081430
688.500000	74.231264
687.000000	74.233219
685.500000	74.290938
684.000000	74.311392
682.500000	74.193559
681.000000	74.152184
679.500000	74.198228
678.000000	74.180118
676.500000	74.183300
675.000000	74.184194
673.500000	74.114765
672.000000	74.161419
670.500000	74.166125
669.000000	74.073609
667.500000	74.113335
666.000000	74.146376
664.500000	74.042824
663.000000	74.107842
661.500000	74.120637
660.000000	74.036403
658.500000	74.044218
657.000000	74.061807
655.500000	74.029561
654.000000	73.980661
652.500000	74.040217
651.000000	74.039963
649.500000	73.994725
648.000000	73.971935
646.500000	73.985992
645.000000	73.983441
643.500000	73.910261
642.000000	73.937173
640.500000	73.943442
639.000000	73.900555
637.500000	73.926504
636.000000	73.853395
634.500000	73.893934
633.000000	73.835382
631.500000	73.816170
630.000000	73.848732
628.500000	73.830744
627.000000	73.821151
625.500000	73.851187
624.000000	73.817440
622.500000	73.747383
621.000000	73.768051
619.500000	73.762846
618.000000	73.685781
616.500000	73.645879
615.000000	73.672537
613.500000	73.688178
612.000000	73.640298
610.500000	73.569994
609.000000	73.603711
607.500000	73.618448
606.000000	73.583239
604.500000	73.575622
603.000000	73.565069
601.500000	73.540745
600.000000	73.556896
598.500000	73.540844
597.000000	73.493854
595.500000	73.445981
594.000000	73.475167
592.500000	73.443720
591.000000	73.429644
589.500000	73.475227
588.000000	73.415188
586.500000	73.326138
585.000000	73.290884
583.500000	73.318363
582.000000	73.330290
580.500000	73.337146
579.000000	73.303291
577.500000	73.204950
576.000000	73.190680
574.500000	73.167330
573.000000	73.120200
571.500000	73.124362
570.000000	73.112262
568.500000	73.076644
567.000000	73.052635
565.500000	72.999043
564.000000	72.955422
562.500000	72.985712
561.000000	73.108234
559.500000	73.201412
558.000000	73.213644
556.500000	73.204062
555.000000	73.169576
553.500000	73.142292
552.000000	73.148229
550.500000	73.144303
549.000000	73.109588
547.500000	73.080895
546.000000	73.060677
544.500000	73.027498
543.000000	73.004928
541.500000	72.983170
540.000000	72.963131
538.500000	72.941425
537.000000	72.938764
535.500000	72.944735
534.000000	72.936549
532.500000	72.919818
531.000000	72.908452
529.500000	72.893924
528.000000	72.888592
526.500000	72.876325
525.000000	72.835021
523.500000	72.762472
522.000000	72.699411
520.500000	72.645602
519.000000	72.543228
517.500000	72.427236
516.000000	72.272361
514.500000	72.083297
513.000000	71.866195
511.500000	71.621389
510.000000	71.385092
508.500000	71.162262
507.000000	70.958472
505.500000	70.782103
504.000000	70.653627
502.500000	70.616922
501.000000	70.615338
499.500000	70.634927
498.000000	70.713658
496.500000	70.834540
495.000000	70.996069
493.500000	71.151430
492.000000	71.269288
490.500000	71.448436
489.000000	71.634502
487.500000	71.781053
486.000000	71.899511
484.500000	72.070803
483.000000	72.333699
481.500000	72.647558
480.000000	72.726300
478.500000	72.483484
477.000000	72.223693
475.500000	72.066759
474.000000	71.943310
472.500000	71.789258
471.000000	71.620132
469.500000	71.427356
468.000000	71.176959
466.500000	70.898221
465.000000	70.622734
463.500000	70.387978
462.000000	70.235828
460.500000	70.118109
459.000000	70.013301
457.500000	69.941912
456.000000	69.957430
454.500000	69.986370
453.000000	70.035834
451.500000	70.022452
450.000000	70.088290
448.500000	70.144569
447.000000	70.122401
445.500000	70.199348
444.000000	70.480884
442.500000	70.637066
441.000000	70.459245
439.500000	70.388828
438.000000	70.315970
436.500000	70.217576
435.000000	70.214208
433.500000	70.162059
432.000000	70.061527
430.500000	70.088985
429.000000	69.941425
427.500000	69.847056
426.000000	69.833864
424.500000	69.761540
423.000000	69.653867
421.500000	69.629904
420.000000	69.571829
418.500000	69.452097
417.000000	69.505523
415.500000	69.319976
414.000000	69.203597
412.500000	69.094527
411.000000	69.013373
409.500000	68.915170
408.000000	68.897327
406.500000	68.791254
405.000000	68.613105
403.500000	68.543905
402.000000	68.454800
400.500000	68.299065
399.000000	68.260611
397.500000	68.095619
396.000000	68.065919
394.500000	67.832420
393.000000	67.714509
391.500000	67.580756
390.000000	67.304584
388.500000	67.149971
387.000000	66.960641
385.500000	66.595664
384.000000	66.357120
382.500000	66.150504
381.000000	65.794549
379.500000	65.522178
378.000000	65.100248
376.500000	65.610210
375.000000	65.569789
373.500000	64.401412
372.000000	63.257680
370.500000	61.899906
369.000000	60.402425
367.500000	58.695220
366.000000	56.538160
364.500000	54.038336
363.000000	51.140118
361.500000	47.771508
360.000000	43.966331
358.500000	39.578046
357.000000	34.689215
355.500000	29.451332
354.000000	23.979982
352.500000	18.771208
351.000000	13.844926
349.500000	9.695212
348.000000	6.305244
346.500000	3.871056
345.000000	2.220743
343.500000	1.199941
342.000000	0.591685
340.500000	0.294277
339.000000	0.127045
337.500000	0.064701
336.000000	0.055765
334.500000	0.061371
333.000000	0.059562
331.500000	0.056869
330.000000	0.052301
328.500000	0.052745
327.000000	0.061390
325.500000	0.056020
324.000000	0.056106
322.500000	0.047706
321.000000	0.040653
319.500000	0.039694
318.000000	0.010900
316.500000	-0.021577
315.000000	-0.025992
313.500000	-0.024883
312.000000	-0.035444
310.500000	-0.038847
309.000000	-0.028481
307.500000	-0.021089
306.000000	-0.016196
304.500000	-0.013173
303.000000	-0.019835
301.500000	-0.020893
300.000000	-0.020071
