PE UV       SUBTECH     SPECTRUM    ASCII       PEDS        4.00        
   -1
Sample10.Sample.Raw.asc
20/12/09
15:22:30.00
20/12/09
15:22:30.00
Administrator

300.000000
1
Lambda 850
850L1710193
PerkinElmer UV WinLab 6.4.0.973 / 2.02.06 Lambda 800 UV/VIS, Jan 28 2016 16:58:34

0
0
2
0
0
UV/VIS
1
1
1
RBeamAtt,SBeamAtt,60mm sphere
0
0
0
0
Fix
 
0
0.2
0
0
0
 
 
 
0
 
0
319.2
0
Front
100
 
S:100 R:100
 
0
0
0
 
0
 
 
 
0
 
 
0
0
0
0
0
 
 
 
 
0
0


0
0
#HDR
-1
-1
#GR
nm
%T
1.0
0.0
750.000000
-1.500000
301
8
67.991671
-0.033096
#DATA
750.000000	67.634389
748.500000	67.991671
747.000000	67.925027
745.500000	67.771813
744.000000	67.596617
742.500000	67.700193
741.000000	67.606604
739.500000	67.476815
738.000000	67.495747
736.500000	67.356194
735.000000	67.424103
733.500000	67.243138
732.000000	67.340479
730.500000	67.266763
729.000000	67.119931
727.500000	67.053040
726.000000	67.207136
724.500000	67.110333
723.000000	67.065867
721.500000	67.126327
720.000000	67.028024
718.500000	66.949291
717.000000	66.952568
715.500000	66.883578
714.000000	66.791212
712.500000	66.817722
711.000000	66.884936
709.500000	66.724462
708.000000	66.608611
706.500000	66.520620
705.000000	66.715744
703.500000	66.618160
702.000000	66.444112
700.500000	66.498679
699.000000	66.427258
697.500000	66.334433
696.000000	66.293841
694.500000	66.296030
693.000000	66.228939
691.500000	66.206113
690.000000	66.067797
688.500000	66.146655
687.000000	66.030260
685.500000	65.951343
684.000000	65.954306
682.500000	65.935053
681.000000	65.921417
679.500000	65.783189
678.000000	65.713487
676.500000	65.632901
675.000000	65.618799
673.500000	65.561221
672.000000	65.364732
670.500000	65.392475
669.000000	65.357080
667.500000	65.179175
666.000000	65.145616
664.500000	64.996440
663.000000	64.933448
661.500000	64.803678
660.000000	64.768238
658.500000	64.679745
657.000000	64.596725
655.500000	64.544229
654.000000	64.423648
652.500000	64.316684
651.000000	64.189225
649.500000	64.076779
648.000000	64.005226
646.500000	63.911990
645.000000	63.773541
643.500000	63.651197
642.000000	63.511995
640.500000	63.387811
639.000000	63.244202
637.500000	63.111991
636.000000	62.982239
634.500000	62.865143
633.000000	62.770286
631.500000	62.648631
630.000000	62.484423
628.500000	62.328480
627.000000	62.233268
625.500000	62.076388
624.000000	61.955679
622.500000	61.840994
621.000000	61.704327
619.500000	61.513887
618.000000	61.381673
616.500000	61.227636
615.000000	61.063698
613.500000	60.965998
612.000000	60.791189
610.500000	60.610738
609.000000	60.485026
607.500000	60.367818
606.000000	60.249611
604.500000	60.065112
603.000000	59.890768
601.500000	59.763892
600.000000	59.609830
598.500000	59.441875
597.000000	59.294756
595.500000	59.152299
594.000000	59.022076
592.500000	58.902882
591.000000	58.763905
589.500000	58.572037
588.000000	58.445207
586.500000	58.298723
585.000000	58.132585
583.500000	57.980610
582.000000	57.869610
580.500000	57.762733
579.000000	57.589533
577.500000	57.448698
576.000000	57.316283
574.500000	57.153645
573.000000	57.017014
571.500000	56.889063
570.000000	56.729807
568.500000	56.573377
567.000000	56.453718
565.500000	56.298964
564.000000	56.142559
562.500000	56.025162
561.000000	55.990628
559.500000	55.943438
558.000000	55.795171
556.500000	55.703874
555.000000	55.608736
553.500000	55.456275
552.000000	55.366435
550.500000	55.281293
549.000000	55.173931
547.500000	55.065596
546.000000	54.949890
544.500000	54.843054
543.000000	54.730592
541.500000	54.620235
540.000000	54.515317
538.500000	54.425943
537.000000	54.364072
535.500000	54.264089
534.000000	54.170353
532.500000	54.090179
531.000000	54.011863
529.500000	53.925187
528.000000	53.817111
526.500000	53.746781
525.000000	53.660647
523.500000	53.537654
522.000000	53.431516
520.500000	53.298851
519.000000	53.164641
517.500000	53.015404
516.000000	52.803743
514.500000	52.598345
513.000000	52.374524
511.500000	52.150228
510.000000	51.914867
508.500000	51.685328
507.000000	51.465034
505.500000	51.270825
504.000000	51.106105
502.500000	50.986663
501.000000	50.915932
499.500000	50.896756
498.000000	50.880217
496.500000	50.913338
495.000000	50.910493
493.500000	50.936736
492.000000	50.994634
490.500000	51.037793
489.000000	51.096175
487.500000	51.164268
486.000000	51.206973
484.500000	51.296932
483.000000	51.485518
481.500000	51.707842
480.000000	51.743931
478.500000	51.525155
477.000000	51.321109
475.500000	51.167040
474.000000	51.057047
472.500000	50.898730
471.000000	50.727952
469.500000	50.538816
468.000000	50.353035
466.500000	50.139698
465.000000	49.888160
463.500000	49.655127
462.000000	49.453160
460.500000	49.306358
459.000000	49.192041
457.500000	49.080043
456.000000	48.991704
454.500000	48.940284
453.000000	48.927110
451.500000	48.872319
450.000000	48.771337
448.500000	48.709715
447.000000	48.606505
445.500000	48.522820
444.000000	48.650105
442.500000	48.655257
441.000000	48.525751
439.500000	48.372344
438.000000	48.224932
436.500000	48.071983
435.000000	48.006072
433.500000	47.840080
432.000000	47.717684
430.500000	47.536641
429.000000	47.414284
427.500000	47.211562
426.000000	47.043648
424.500000	46.860962
423.000000	46.716897
421.500000	46.540408
420.000000	46.340311
418.500000	46.171027
417.000000	45.992968
415.500000	45.794123
414.000000	45.569361
412.500000	45.341662
411.000000	45.150358
409.500000	44.924512
408.000000	44.743599
406.500000	44.466338
405.000000	44.239691
403.500000	44.034757
402.000000	43.812422
400.500000	43.623411
399.000000	43.334443
397.500000	43.122616
396.000000	42.875634
394.500000	42.698415
393.000000	42.388382
391.500000	42.116420
390.000000	41.846404
388.500000	41.653113
387.000000	41.386847
385.500000	41.101122
384.000000	40.819229
382.500000	40.429851
381.000000	40.155734
379.500000	39.850390
378.000000	39.520267
376.500000	39.551833
375.000000	39.374290
373.500000	38.757474
372.000000	38.032911
370.500000	37.205070
369.000000	36.212625
367.500000	35.105477
366.000000	33.838373
364.500000	32.254623
363.000000	30.526767
361.500000	28.454352
360.000000	26.014117
358.500000	23.214337
357.000000	20.118831
355.500000	16.833414
354.000000	13.426206
352.500000	10.077836
351.000000	7.020101
349.500000	4.476034
348.000000	2.544846
346.500000	1.260007
345.000000	0.512227
343.500000	0.179713
342.000000	0.047743
340.500000	0.021264
339.000000	0.008737
337.500000	0.014031
336.000000	0.023468
334.500000	0.023345
333.000000	0.028110
331.500000	0.023207
330.000000	0.015642
328.500000	0.031235
327.000000	0.031716
325.500000	0.026420
324.000000	0.018117
322.500000	0.033167
321.000000	0.026774
319.500000	0.020119
318.000000	0.000472
316.500000	-0.029519
315.000000	-0.032458
313.500000	-0.033096
312.000000	-0.026077
310.500000	-0.017792
309.000000	-0.018956
307.500000	-0.018238
306.000000	-0.011799
304.500000	-0.006867
303.000000	-0.009927
301.500000	-0.012222
300.000000	-0.014815
