PE UV       SUBTECH     SPECTRUM    ASCII       PEDS        4.00        
   -1
Sample234.Sample.Raw.asc
21/02/05
14:51:25.00
21/02/05
14:51:25.00
Administrator

300.000000
1
Lambda 850
850L1710193
PerkinElmer UV WinLab 6.4.0.973 / 2.02.06 Lambda 800 UV/VIS, Jan 28 2016 16:58:34

0
0
2
0
0
UV/VIS
1
1
1
RBeamAtt,SBeamAtt,60mm sphere
0
0
0
0
Fix
 
0
0.2
0
0
0
 
 
 
0
 
0
340
0
Front
100
 
S:100 R:100
 
0
0
0
 
0
 
 
 
0
 
 
0
0
0
0
0
 
 
 
 
0
0


0
0
#HDR
-1
-1
#GR
nm
%T
1.0
0.0
750.000000
-1.500000
301
8
75.703437
-0.044783
#DATA
750.000000	75.381850
748.500000	75.615793
747.000000	75.686881
745.500000	75.369643
744.000000	75.552080
742.500000	75.703437
741.000000	75.647943
739.500000	75.531188
738.000000	75.494784
736.500000	75.588949
735.000000	75.469052
733.500000	75.493393
732.000000	75.475407
730.500000	75.370701
729.000000	75.538247
727.500000	75.438643
726.000000	75.591179
724.500000	75.421233
723.000000	75.459804
721.500000	75.447728
720.000000	75.372566
718.500000	75.303788
717.000000	75.438313
715.500000	75.530179
714.000000	75.353419
712.500000	75.437210
711.000000	75.355529
709.500000	75.355673
708.000000	75.253714
706.500000	75.344774
705.000000	75.521961
703.500000	75.403366
702.000000	75.276360
700.500000	75.270738
699.000000	75.341863
697.500000	75.223693
696.000000	75.214308
694.500000	75.161618
693.000000	75.164632
691.500000	75.239489
690.000000	75.034511
688.500000	75.186483
687.000000	75.161754
685.500000	75.109968
684.000000	75.094171
682.500000	75.153623
681.000000	75.101586
679.500000	75.107067
678.000000	75.085101
676.500000	75.110511
675.000000	75.066229
673.500000	75.049042
672.000000	75.034583
670.500000	74.965751
669.000000	74.968126
667.500000	75.003324
666.000000	75.009525
664.500000	74.989898
663.000000	74.925909
661.500000	74.929456
660.000000	74.973423
658.500000	74.891836
657.000000	74.853411
655.500000	74.927047
654.000000	74.901749
652.500000	74.833823
651.000000	74.785794
649.500000	74.801068
648.000000	74.802072
646.500000	74.790131
645.000000	74.775518
643.500000	74.702245
642.000000	74.697949
640.500000	74.687892
639.000000	74.712841
637.500000	74.684164
636.000000	74.620060
634.500000	74.629658
633.000000	74.654004
631.500000	74.614142
630.000000	74.626227
628.500000	74.571589
627.000000	74.521011
625.500000	74.546816
624.000000	74.548065
622.500000	74.562986
621.000000	74.514065
619.500000	74.465929
618.000000	74.464460
616.500000	74.430113
615.000000	74.326282
613.500000	74.319931
612.000000	74.368308
610.500000	74.395921
609.000000	74.372023
607.500000	74.290886
606.000000	74.292645
604.500000	74.308660
603.000000	74.249551
601.500000	74.226956
600.000000	74.245050
598.500000	74.219219
597.000000	74.168351
595.500000	74.139483
594.000000	74.132433
592.500000	74.086599
591.000000	74.062748
589.500000	74.022391
588.000000	74.041119
586.500000	74.032460
585.000000	74.004067
583.500000	73.983410
582.000000	73.942633
580.500000	73.962511
579.000000	73.926317
577.500000	73.876952
576.000000	73.849192
574.500000	73.840487
573.000000	73.838384
571.500000	73.783986
570.000000	73.747960
568.500000	73.723964
567.000000	73.674436
565.500000	73.612424
564.000000	73.547969
562.500000	73.527046
561.000000	73.664983
559.500000	73.805984
558.000000	73.792889
556.500000	73.800119
555.000000	73.801540
553.500000	73.778730
552.000000	73.738287
550.500000	73.718234
549.000000	73.733209
547.500000	73.740660
546.000000	73.749840
544.500000	73.730794
543.000000	73.686079
541.500000	73.667322
540.000000	73.690005
538.500000	73.702929
537.000000	73.711174
535.500000	73.696404
534.000000	73.700451
532.500000	73.679887
531.000000	73.653345
529.500000	73.681398
528.000000	73.678721
526.500000	73.654469
525.000000	73.620304
523.500000	73.563311
522.000000	73.500472
520.500000	73.432870
519.000000	73.333950
517.500000	73.214230
516.000000	73.057035
514.500000	72.833398
513.000000	72.626591
511.500000	72.405023
510.000000	72.144420
508.500000	71.856948
507.000000	71.606624
505.500000	71.423523
504.000000	71.255380
502.500000	71.134233
501.000000	71.025093
499.500000	71.023510
498.000000	71.039089
496.500000	71.086720
495.000000	71.161009
493.500000	71.266064
492.000000	71.359535
490.500000	71.434242
489.000000	71.545359
487.500000	71.726952
486.000000	71.930371
484.500000	72.094390
483.000000	72.447672
481.500000	72.834828
480.000000	72.939011
478.500000	72.705424
477.000000	72.425414
475.500000	72.321291
474.000000	72.207163
472.500000	72.082336
471.000000	71.903416
469.500000	71.729618
468.000000	71.470345
466.500000	71.210420
465.000000	70.879121
463.500000	70.643210
462.000000	70.403981
460.500000	70.201200
459.000000	70.101919
457.500000	69.943790
456.000000	69.933739
454.500000	69.908459
453.000000	69.861492
451.500000	69.840836
450.000000	69.798707
448.500000	69.806446
447.000000	69.796529
445.500000	69.762171
444.000000	70.076029
442.500000	70.288112
441.000000	70.170675
439.500000	70.102093
438.000000	70.017963
436.500000	69.993177
435.000000	69.873525
433.500000	69.881770
432.000000	69.791264
430.500000	69.761168
429.000000	69.685026
427.500000	69.693757
426.000000	69.597727
424.500000	69.574473
423.000000	69.450711
421.500000	69.422625
420.000000	69.322770
418.500000	69.266352
417.000000	69.160621
415.500000	69.092557
414.000000	68.982491
412.500000	68.989239
411.000000	68.913902
409.500000	68.757529
408.000000	68.709150
406.500000	68.623476
405.000000	68.541323
403.500000	68.466805
402.000000	68.427452
400.500000	68.302295
399.000000	68.099647
397.500000	68.023864
396.000000	67.931149
394.500000	67.811384
393.000000	67.663791
391.500000	67.570278
390.000000	67.491021
388.500000	67.361069
387.000000	67.071738
385.500000	66.887489
384.000000	66.682827
382.500000	66.515849
381.000000	66.269184
379.500000	66.014384
378.000000	65.855532
376.500000	66.553223
375.000000	66.529005
373.500000	65.736942
372.000000	64.883397
370.500000	63.649171
369.000000	62.584633
367.500000	61.346470
366.000000	59.806290
364.500000	58.140440
363.000000	55.960293
361.500000	53.299469
360.000000	50.328941
358.500000	46.998351
357.000000	42.751538
355.500000	38.269827
354.000000	33.375393
352.500000	28.065913
351.000000	22.737960
349.500000	17.579997
348.000000	12.870681
346.500000	8.827009
345.000000	5.520294
343.500000	3.134765
342.000000	1.549875
340.500000	0.663359
339.000000	0.239541
337.500000	0.035894
336.000000	-0.014669
334.500000	-0.006128
333.000000	-0.001580
331.500000	-0.018518
330.000000	-0.001675
328.500000	-0.014993
327.000000	-0.006241
325.500000	-0.015861
324.000000	-0.024528
322.500000	-0.022027
321.000000	-0.024446
319.500000	-0.013839
318.000000	-0.006310
316.500000	-0.042831
315.000000	-0.039966
313.500000	-0.044783
312.000000	-0.037538
310.500000	-0.033444
309.000000	-0.025166
307.500000	-0.028259
306.000000	-0.014495
304.500000	-0.012722
303.000000	-0.015486
301.500000	-0.016353
300.000000	-0.023673
