PE UV       SUBTECH     SPECTRUM    ASCII       PEDS        4.00        
   -1
Sample32.Sample.Raw.asc
21/03/31
14:28:34.00
21/03/31
14:28:34.00
Administrator

300.000000
1
Lambda 850
850L1710193
PerkinElmer UV WinLab 6.4.0.973 / 2.02.06 Lambda 800 UV/VIS, Jan 28 2016 16:58:34

0
0
2
0
0
UV/VIS
1
1
1
RBeamAtt,SBeamAtt,60mm sphere
0
0
0
0
Fix
 
0
0.2
0
0
0
 
 
 
0
 
0
340
0
Front
100
 
S:100 R:100
 
0
0
0
 
0
 
 
 
0
 
 
0
0
0
0
0
 
 
 
 
0
0


0
0
#HDR
-1
-1
#GR
nm
%T
1.0
0.0
750.000000
-1.500000
301
8
74.224230
-0.032559
#DATA
750.000000	73.917290
748.500000	74.173101
747.000000	74.127515
745.500000	74.170959
744.000000	74.014225
742.500000	74.154973
741.000000	74.224230
739.500000	73.986242
738.000000	74.096690
736.500000	74.124635
735.000000	74.001829
733.500000	73.942373
732.000000	74.057990
730.500000	74.030983
729.000000	74.063487
727.500000	74.051441
726.000000	74.001949
724.500000	74.043975
723.000000	74.000213
721.500000	73.935204
720.000000	73.925336
718.500000	73.922494
717.000000	73.996346
715.500000	73.888293
714.000000	73.969100
712.500000	73.985219
711.000000	73.878263
709.500000	73.868309
708.000000	73.923851
706.500000	73.993402
705.000000	73.983163
703.500000	73.809466
702.000000	73.813211
700.500000	73.769378
699.000000	73.847267
697.500000	73.875995
696.000000	73.722488
694.500000	73.712054
693.000000	73.769561
691.500000	73.695524
690.000000	73.633739
688.500000	73.716694
687.000000	73.681364
685.500000	73.731526
684.000000	73.769517
682.500000	73.812198
681.000000	73.604119
679.500000	73.607525
678.000000	73.642226
676.500000	73.658323
675.000000	73.632317
673.500000	73.618815
672.000000	73.576213
670.500000	73.565372
669.000000	73.553067
667.500000	73.546332
666.000000	73.568778
664.500000	73.520212
663.000000	73.512236
661.500000	73.409407
660.000000	73.463982
658.500000	73.393980
657.000000	73.442387
655.500000	73.416089
654.000000	73.375434
652.500000	73.414136
651.000000	73.355289
649.500000	73.374682
648.000000	73.361090
646.500000	73.351655
645.000000	73.327900
643.500000	73.286701
642.000000	73.232046
640.500000	73.238729
639.000000	73.239084
637.500000	73.231927
636.000000	73.199240
634.500000	73.199894
633.000000	73.161188
631.500000	73.150735
630.000000	73.128261
628.500000	73.098003
627.000000	73.061309
625.500000	73.039953
624.000000	73.034146
622.500000	73.011361
621.000000	73.011454
619.500000	72.961412
618.000000	72.882548
616.500000	72.854268
615.000000	72.878810
613.500000	72.908314
612.000000	72.857629
610.500000	72.799703
609.000000	72.731006
607.500000	72.759924
606.000000	72.768186
604.500000	72.702390
603.000000	72.697671
601.500000	72.672282
600.000000	72.653328
598.500000	72.616699
597.000000	72.542148
595.500000	72.522039
594.000000	72.524267
592.500000	72.525210
591.000000	72.521279
589.500000	72.470792
588.000000	72.461321
586.500000	72.419599
585.000000	72.353948
583.500000	72.354771
582.000000	72.327514
580.500000	72.296181
579.000000	72.246686
577.500000	72.269368
576.000000	72.252256
574.500000	72.194165
573.000000	72.166504
571.500000	72.113953
570.000000	72.069914
568.500000	72.038795
567.000000	71.995714
565.500000	71.959623
564.000000	71.900194
562.500000	71.868015
561.000000	71.992885
559.500000	72.137213
558.000000	72.108665
556.500000	72.090343
555.000000	72.033612
553.500000	71.947823
552.000000	71.936369
550.500000	71.931000
549.000000	71.928280
547.500000	71.906736
546.000000	71.881976
544.500000	71.868327
543.000000	71.845157
541.500000	71.794273
540.000000	71.758810
538.500000	71.739692
537.000000	71.733419
535.500000	71.727835
534.000000	71.704934
532.500000	71.700118
531.000000	71.666425
529.500000	71.604200
528.000000	71.601979
526.500000	71.591165
525.000000	71.519252
523.500000	71.465616
522.000000	71.394966
520.500000	71.300221
519.000000	71.211028
517.500000	71.114695
516.000000	70.968307
514.500000	70.784785
513.000000	70.571569
511.500000	70.313607
510.000000	70.088497
508.500000	69.877305
507.000000	69.660759
505.500000	69.504522
504.000000	69.391091
502.500000	69.346027
501.000000	69.369009
499.500000	69.412271
498.000000	69.482417
496.500000	69.522839
495.000000	69.698302
493.500000	69.855045
492.000000	69.991743
490.500000	70.139671
489.000000	70.291256
487.500000	70.426339
486.000000	70.519773
484.500000	70.693351
483.000000	71.005569
481.500000	71.285662
480.000000	71.327449
478.500000	71.057863
477.000000	70.804309
475.500000	70.639815
474.000000	70.476534
472.500000	70.371777
471.000000	70.201211
469.500000	70.010616
468.000000	69.782302
466.500000	69.495189
465.000000	69.255045
463.500000	69.035896
462.000000	68.836573
460.500000	68.718941
459.000000	68.598143
457.500000	68.592213
456.000000	68.588044
454.500000	68.567714
453.000000	68.575211
451.500000	68.629183
450.000000	68.635042
448.500000	68.689831
447.000000	68.734450
445.500000	68.725326
444.000000	69.006743
442.500000	69.084523
441.000000	68.983783
439.500000	68.914041
438.000000	68.858650
436.500000	68.717624
435.000000	68.725255
433.500000	68.636385
432.000000	68.591822
430.500000	68.467805
429.000000	68.342092
427.500000	68.355759
426.000000	68.255171
424.500000	68.189323
423.000000	68.140158
421.500000	68.073027
420.000000	67.983327
418.500000	67.889667
417.000000	67.857407
415.500000	67.764868
414.000000	67.651142
412.500000	67.553182
411.000000	67.461948
409.500000	67.379266
408.000000	67.336375
406.500000	67.167093
405.000000	67.031686
403.500000	67.029943
402.000000	66.832646
400.500000	66.751234
399.000000	66.635849
397.500000	66.511016
396.000000	66.370246
394.500000	66.206852
393.000000	66.193188
391.500000	65.981141
390.000000	65.882398
388.500000	65.710393
387.000000	65.519588
385.500000	65.298284
384.000000	65.047525
382.500000	64.729485
381.000000	64.431738
379.500000	64.009836
378.000000	63.705759
376.500000	64.287403
375.000000	64.139567
373.500000	63.099061
372.000000	61.996833
370.500000	60.763461
369.000000	59.382231
367.500000	57.506995
366.000000	55.591207
364.500000	53.155705
363.000000	50.254524
361.500000	46.881330
360.000000	43.062638
358.500000	38.658140
357.000000	33.721618
355.500000	28.426620
354.000000	23.059489
352.500000	17.807568
351.000000	12.975511
349.500000	8.893923
348.000000	5.745046
346.500000	3.461583
345.000000	1.944866
343.500000	1.019627
342.000000	0.497858
340.500000	0.229047
339.000000	0.052956
337.500000	-0.011228
336.000000	-0.023691
334.500000	-0.023672
333.000000	-0.023078
331.500000	-0.024220
330.000000	-0.026287
328.500000	-0.024713
327.000000	-0.029079
325.500000	-0.022836
324.000000	-0.016514
322.500000	-0.029947
321.000000	-0.031074
319.500000	-0.021229
318.000000	0.002256
316.500000	-0.020926
315.000000	-0.027434
313.500000	-0.028919
312.000000	-0.032559
310.500000	-0.023174
309.000000	-0.018106
307.500000	-0.014267
306.000000	-0.012034
304.500000	-0.008908
303.000000	-0.007406
301.500000	-0.009214
300.000000	-0.007802
