PE UV       SUBTECH     SPECTRUM    ASCII       PEDS        4.00        
   -1
Sample31.Sample.Raw.asc
21/03/31
14:24:44.00
21/03/31
14:24:44.00
Administrator

300.000000
1
Lambda 850
850L1710193
PerkinElmer UV WinLab 6.4.0.973 / 2.02.06 Lambda 800 UV/VIS, Jan 28 2016 16:58:34

0
0
2
0
0
UV/VIS
1
1
1
RBeamAtt,SBeamAtt,60mm sphere
0
0
0
0
Fix
 
0
0.2
0
0
0
 
 
 
0
 
0
340
0
Front
100
 
S:100 R:100
 
0
0
0
 
0
 
 
 
0
 
 
0
0
0
0
0
 
 
 
 
0
0


0
0
#HDR
-1
-1
#GR
nm
%T
1.0
0.0
750.000000
-1.500000
301
8
74.314870
-0.029799
#DATA
750.000000	73.758222
748.500000	74.217911
747.000000	74.103491
745.500000	74.314870
744.000000	74.003989
742.500000	74.007713
741.000000	74.092938
739.500000	74.108982
738.000000	74.106639
736.500000	74.224434
735.000000	74.177796
733.500000	74.103936
732.000000	74.116142
730.500000	73.978033
729.000000	73.943200
727.500000	74.019593
726.000000	73.910411
724.500000	73.935700
723.000000	74.043172
721.500000	73.983453
720.000000	73.886929
718.500000	73.937195
717.000000	73.840515
715.500000	73.873184
714.000000	73.946065
712.500000	73.890209
711.000000	73.828704
709.500000	73.855772
708.000000	73.809782
706.500000	73.952564
705.000000	73.921392
703.500000	73.829117
702.000000	73.785419
700.500000	73.793278
699.000000	73.713214
697.500000	73.771706
696.000000	73.678277
694.500000	73.681199
693.000000	73.689802
691.500000	73.625996
690.000000	73.534575
688.500000	73.694619
687.000000	73.683901
685.500000	73.723744
684.000000	73.688439
682.500000	73.606945
681.000000	73.542097
679.500000	73.585658
678.000000	73.590592
676.500000	73.576836
675.000000	73.619937
673.500000	73.570905
672.000000	73.587696
670.500000	73.527895
669.000000	73.509164
667.500000	73.471580
666.000000	73.507883
664.500000	73.426048
663.000000	73.417354
661.500000	73.389875
660.000000	73.404862
658.500000	73.345634
657.000000	73.346081
655.500000	73.278857
654.000000	73.278399
652.500000	73.316735
651.000000	73.302743
649.500000	73.301453
648.000000	73.254638
646.500000	73.238468
645.000000	73.171470
643.500000	73.188372
642.000000	73.160463
640.500000	73.158424
639.000000	73.099850
637.500000	73.081241
636.000000	73.066288
634.500000	73.118756
633.000000	73.036114
631.500000	72.988339
630.000000	73.037457
628.500000	72.976905
627.000000	72.937019
625.500000	72.930121
624.000000	72.916529
622.500000	72.899446
621.000000	72.866569
619.500000	72.809212
618.000000	72.784509
616.500000	72.764780
615.000000	72.771871
613.500000	72.767770
612.000000	72.727265
610.500000	72.674637
609.000000	72.644337
607.500000	72.613752
606.000000	72.610995
604.500000	72.579098
603.000000	72.585446
601.500000	72.573927
600.000000	72.508401
598.500000	72.479666
597.000000	72.413978
595.500000	72.385179
594.000000	72.393721
592.500000	72.395663
591.000000	72.352399
589.500000	72.278042
588.000000	72.273013
586.500000	72.265586
585.000000	72.211275
583.500000	72.195080
582.000000	72.201901
580.500000	72.153022
579.000000	72.081894
577.500000	72.069342
576.000000	72.049630
574.500000	71.991693
573.000000	71.958411
571.500000	71.903519
570.000000	71.855309
568.500000	71.817835
567.000000	71.780332
565.500000	71.722318
564.000000	71.660425
562.500000	71.636996
561.000000	71.761243
559.500000	71.884482
558.000000	71.879018
556.500000	71.838106
555.000000	71.788042
553.500000	71.774248
552.000000	71.747548
550.500000	71.709083
549.000000	71.672183
547.500000	71.662318
546.000000	71.633809
544.500000	71.603101
543.000000	71.589925
541.500000	71.536062
540.000000	71.524804
538.500000	71.499662
537.000000	71.498250
535.500000	71.504675
534.000000	71.461291
532.500000	71.436484
531.000000	71.405437
529.500000	71.355399
528.000000	71.347786
526.500000	71.314138
525.000000	71.245041
523.500000	71.195904
522.000000	71.123975
520.500000	71.027241
519.000000	70.920667
517.500000	70.812638
516.000000	70.651466
514.500000	70.479885
513.000000	70.277330
511.500000	70.039027
510.000000	69.824724
508.500000	69.623360
507.000000	69.412735
505.500000	69.249663
504.000000	69.121725
502.500000	69.049033
501.000000	69.076459
499.500000	69.124277
498.000000	69.170833
496.500000	69.237285
495.000000	69.403876
493.500000	69.578085
492.000000	69.746439
490.500000	69.861990
489.000000	69.999551
487.500000	70.148113
486.000000	70.225190
484.500000	70.434904
483.000000	70.721815
481.500000	70.989605
480.000000	71.046397
478.500000	70.785616
477.000000	70.528444
475.500000	70.330086
474.000000	70.150784
472.500000	70.055465
471.000000	69.885118
469.500000	69.688551
468.000000	69.439419
466.500000	69.163443
465.000000	68.919886
463.500000	68.727170
462.000000	68.497832
460.500000	68.362495
459.000000	68.282649
457.500000	68.280790
456.000000	68.268587
454.500000	68.218435
453.000000	68.230832
451.500000	68.281355
450.000000	68.343132
448.500000	68.348555
447.000000	68.363309
445.500000	68.370669
444.000000	68.718442
442.500000	68.819578
441.000000	68.701183
439.500000	68.634397
438.000000	68.590112
436.500000	68.479375
435.000000	68.422031
433.500000	68.355797
432.000000	68.305490
430.500000	68.219768
429.000000	68.108445
427.500000	68.074881
426.000000	67.964406
424.500000	67.950205
423.000000	67.813732
421.500000	67.819218
420.000000	67.672234
418.500000	67.631726
417.000000	67.553131
415.500000	67.459784
414.000000	67.370236
412.500000	67.262806
411.000000	67.197272
409.500000	67.085484
408.000000	66.994850
406.500000	66.892105
405.000000	66.842263
403.500000	66.711701
402.000000	66.578763
400.500000	66.470991
399.000000	66.325743
397.500000	66.340128
396.000000	66.202749
394.500000	65.987598
393.000000	65.863949
391.500000	65.800021
390.000000	65.673569
388.500000	65.428320
387.000000	65.185088
385.500000	65.031137
384.000000	64.805192
382.500000	64.557611
381.000000	64.154969
379.500000	63.747576
378.000000	63.594254
376.500000	63.988213
375.000000	63.900905
373.500000	62.844785
372.000000	61.639566
370.500000	60.353023
369.000000	58.945449
367.500000	57.011680
366.000000	55.195043
364.500000	52.648304
363.000000	49.754166
361.500000	46.259471
360.000000	42.451741
358.500000	37.962818
357.000000	33.040644
355.500000	27.796408
354.000000	22.459295
352.500000	17.263823
351.000000	12.608371
349.500000	8.618580
348.000000	5.542000
346.500000	3.323223
345.000000	1.863104
343.500000	0.983777
342.000000	0.477873
340.500000	0.210438
339.000000	0.048218
337.500000	-0.008815
336.000000	-0.025270
334.500000	-0.029799
333.000000	-0.022706
331.500000	-0.027574
330.000000	-0.028338
328.500000	-0.017253
327.000000	-0.020039
325.500000	-0.019667
324.000000	-0.022298
322.500000	-0.019125
321.000000	-0.026128
319.500000	-0.016086
318.000000	0.000658
316.500000	-0.025524
315.000000	-0.021327
313.500000	-0.024131
312.000000	-0.024937
310.500000	-0.019877
309.000000	-0.019049
307.500000	-0.011244
306.000000	-0.006917
304.500000	0.000474
303.000000	-0.005317
301.500000	-0.010639
300.000000	-0.013225
