PE UV       SUBTECH     SPECTRUM    ASCII       PEDS        4.00        
   -1
Sample1.Sample.Raw.asc
21/03/26
11:23:12.00
21/03/26
11:23:12.00
Administrator

300.000000
1
Lambda 850
850L1710193
PerkinElmer UV WinLab 6.4.0.973 / 2.02.06 Lambda 800 UV/VIS, Jan 28 2016 16:58:34

0
0
2
0
0
UV/VIS
1
1
1
RBeamAtt,SBeamAtt,60mm sphere
0
0
0
0
Fix
 
0
0.2
0
0
0
 
 
 
0
 
0
340
0
Front
100
 
S:100 R:100
 
0
0
0
 
0
 
 
 
0
 
 
0
0
0
0
0
 
 
 
 
0
0


0
0
#HDR
-1
-1
#GR
nm
%T
1.0
0.0
750.000000
-1.500000
301
8
75.701434
-0.043587
#DATA
750.000000	75.327321
748.500000	75.638185
747.000000	75.557571
745.500000	75.572160
744.000000	75.545122
742.500000	75.672940
741.000000	75.536679
739.500000	75.539736
738.000000	75.701434
736.500000	75.460840
735.000000	75.575785
733.500000	75.657395
732.000000	75.545349
730.500000	75.491041
729.000000	75.401161
727.500000	75.516634
726.000000	75.488715
724.500000	75.494544
723.000000	75.404418
721.500000	75.451629
720.000000	75.403424
718.500000	75.548537
717.000000	75.475914
715.500000	75.358648
714.000000	75.417068
712.500000	75.437574
711.000000	75.324730
709.500000	75.400208
708.000000	75.385393
706.500000	75.435272
705.000000	75.363036
703.500000	75.360919
702.000000	75.339433
700.500000	75.326410
699.000000	75.344354
697.500000	75.301448
696.000000	75.302674
694.500000	75.270984
693.000000	75.120180
691.500000	75.140355
690.000000	74.992794
688.500000	75.181202
687.000000	75.189341
685.500000	75.130496
684.000000	75.194355
682.500000	75.206500
681.000000	75.205273
679.500000	75.151355
678.000000	75.124497
676.500000	75.084480
675.000000	75.108372
673.500000	75.135971
672.000000	75.018126
670.500000	75.085764
669.000000	75.035849
667.500000	75.070455
666.000000	75.058923
664.500000	75.024378
663.000000	75.019467
661.500000	74.992384
660.000000	75.024472
658.500000	74.895828
657.000000	74.986347
655.500000	74.987237
654.000000	74.960312
652.500000	74.969854
651.000000	74.943077
649.500000	74.832681
648.000000	74.837351
646.500000	74.844710
645.000000	74.799664
643.500000	74.824121
642.000000	74.821883
640.500000	74.746416
639.000000	74.731594
637.500000	74.770028
636.000000	74.762205
634.500000	74.764294
633.000000	74.744299
631.500000	74.628067
630.000000	74.667172
628.500000	74.664872
627.000000	74.664257
625.500000	74.613460
624.000000	74.624380
622.500000	74.593785
621.000000	74.596523
619.500000	74.606647
618.000000	74.579802
616.500000	74.568312
615.000000	74.532036
613.500000	74.447567
612.000000	74.468089
610.500000	74.441582
609.000000	74.440188
607.500000	74.399140
606.000000	74.340841
604.500000	74.387166
603.000000	74.402260
601.500000	74.325086
600.000000	74.303858
598.500000	74.302093
597.000000	74.271168
595.500000	74.266690
594.000000	74.241595
592.500000	74.247831
591.000000	74.280704
589.500000	74.258437
588.000000	74.187992
586.500000	74.186529
585.000000	74.192560
583.500000	74.154914
582.000000	74.138315
580.500000	74.110850
579.000000	74.091853
577.500000	74.067419
576.000000	74.062185
574.500000	74.040272
573.000000	74.012045
571.500000	73.979421
570.000000	73.910766
568.500000	73.924234
567.000000	73.909678
565.500000	73.860054
564.000000	73.791564
562.500000	73.807247
561.000000	73.995197
559.500000	74.088865
558.000000	74.054986
556.500000	74.050961
555.000000	74.067795
553.500000	74.003820
552.000000	73.965378
550.500000	73.984462
549.000000	73.965075
547.500000	73.953572
546.000000	73.937115
544.500000	73.932292
543.000000	73.966531
541.500000	73.958333
540.000000	73.930432
538.500000	73.913284
537.000000	73.928915
535.500000	73.953064
534.000000	73.961932
532.500000	73.989030
531.000000	73.976597
529.500000	73.982449
528.000000	73.954704
526.500000	73.915869
525.000000	73.902791
523.500000	73.867543
522.000000	73.853789
520.500000	73.787909
519.000000	73.674281
517.500000	73.555509
516.000000	73.395744
514.500000	73.213998
513.000000	72.997726
511.500000	72.750347
510.000000	72.503335
508.500000	72.266370
507.000000	72.015128
505.500000	71.823526
504.000000	71.673436
502.500000	71.541212
501.000000	71.494435
499.500000	71.508859
498.000000	71.543472
496.500000	71.619626
495.000000	71.654856
493.500000	71.725912
492.000000	71.862144
490.500000	71.967706
489.000000	72.068920
487.500000	72.212751
486.000000	72.364974
484.500000	72.588810
483.000000	72.946561
481.500000	73.360568
480.000000	73.487024
478.500000	73.238874
477.000000	72.985339
475.500000	72.835157
474.000000	72.718857
472.500000	72.628627
471.000000	72.488476
469.500000	72.276381
468.000000	72.029354
466.500000	71.780995
465.000000	71.491418
463.500000	71.234940
462.000000	71.033577
460.500000	70.861114
459.000000	70.743449
457.500000	70.625502
456.000000	70.564467
454.500000	70.502786
453.000000	70.516474
451.500000	70.523647
450.000000	70.512007
448.500000	70.523942
447.000000	70.514112
445.500000	70.556153
444.000000	70.781126
442.500000	71.010681
441.000000	70.922685
439.500000	70.836934
438.000000	70.786743
436.500000	70.710984
435.000000	70.674724
433.500000	70.660472
432.000000	70.660234
430.500000	70.521752
429.000000	70.457126
427.500000	70.352794
426.000000	70.393255
424.500000	70.339812
423.000000	70.320188
421.500000	70.203124
420.000000	70.214903
418.500000	70.079380
417.000000	70.024529
415.500000	70.031232
414.000000	69.967375
412.500000	69.897396
411.000000	69.797952
409.500000	69.776485
408.000000	69.715692
406.500000	69.580513
405.000000	69.471178
403.500000	69.363974
402.000000	69.332613
400.500000	69.291678
399.000000	69.226359
397.500000	69.099378
396.000000	68.970942
394.500000	68.913144
393.000000	68.774024
391.500000	68.594017
390.000000	68.523433
388.500000	68.291269
387.000000	68.215529
385.500000	68.034288
384.000000	67.948225
382.500000	67.669393
381.000000	67.449422
379.500000	67.091385
378.000000	67.040097
376.500000	67.691347
375.000000	67.866454
373.500000	66.762482
372.000000	65.789982
370.500000	64.914585
369.000000	63.806185
367.500000	62.470400
366.000000	60.870950
364.500000	59.061639
363.000000	56.832344
361.500000	54.128809
360.000000	51.088365
358.500000	47.441950
357.000000	43.322646
355.500000	38.588881
354.000000	33.689521
352.500000	28.289373
351.000000	22.866224
349.500000	17.692896
348.000000	12.842693
346.500000	8.770302
345.000000	5.485716
343.500000	3.078017
342.000000	1.547888
340.500000	0.649591
339.000000	0.170147
337.500000	0.010121
336.000000	-0.029335
334.500000	-0.042163
333.000000	-0.034374
331.500000	-0.037973
330.000000	-0.043587
328.500000	-0.032440
327.000000	-0.032795
325.500000	-0.022208
324.000000	-0.021285
322.500000	-0.028872
321.000000	-0.032697
319.500000	-0.012165
318.000000	0.005927
316.500000	-0.023306
315.000000	-0.026215
313.500000	-0.030489
312.000000	-0.026358
310.500000	-0.026285
309.000000	-0.024890
307.500000	-0.018635
306.000000	-0.009098
304.500000	-0.011111
303.000000	-0.020416
301.500000	-0.020435
300.000000	-0.015038
