PE UV       SUBTECH     SPECTRUM    ASCII       PEDS        4.00        
   -1
Sample52.Sample.Raw.asc
21/04/02
12:56:26.00
21/04/02
12:56:26.00
Administrator

300.000000
1
Lambda 850
850L1710193
PerkinElmer UV WinLab 6.4.0.973 / 2.02.06 Lambda 800 UV/VIS, Jan 28 2016 16:58:34

0
0
2
0
0
UV/VIS
1
1
1
RBeamAtt,SBeamAtt,60mm sphere
0
0
0
0
Fix
 
0
0.2
0
0
0
 
 
 
0
 
0
340
0
Front
100
 
S:100 R:100
 
0
0
0
 
0
 
 
 
0
 
 
0
0
0
0
0
 
 
 
 
0
0


0
0
#HDR
-1
-1
#GR
nm
%T
1.0
0.0
750.000000
-1.500000
301
8
76.529961
-0.051609
#DATA
750.000000	76.038511
748.500000	76.334763
747.000000	76.338149
745.500000	76.529961
744.000000	76.384269
742.500000	76.516395
741.000000	76.356713
739.500000	76.475195
738.000000	76.337068
736.500000	76.416254
735.000000	76.412198
733.500000	76.355164
732.000000	76.236452
730.500000	76.220121
729.000000	76.427613
727.500000	76.394064
726.000000	76.317936
724.500000	76.314557
723.000000	76.255855
721.500000	76.411603
720.000000	76.321187
718.500000	76.378451
717.000000	76.265075
715.500000	76.205920
714.000000	76.254139
712.500000	76.282735
711.000000	76.184738
709.500000	76.192119
708.000000	76.152637
706.500000	76.030229
705.000000	76.136767
703.500000	76.152089
702.000000	76.072826
700.500000	76.175497
699.000000	76.062034
697.500000	76.105854
696.000000	76.207178
694.500000	76.060437
693.000000	76.068643
691.500000	76.050296
690.000000	75.898803
688.500000	76.075850
687.000000	76.078194
685.500000	76.006309
684.000000	76.116845
682.500000	76.109240
681.000000	76.065449
679.500000	76.016996
678.000000	76.003939
676.500000	75.952858
675.000000	76.011684
673.500000	76.014674
672.000000	75.932695
670.500000	76.008985
669.000000	75.993418
667.500000	75.947405
666.000000	75.950747
664.500000	75.932437
663.000000	75.849964
661.500000	75.913350
660.000000	75.919052
658.500000	75.866798
657.000000	75.813522
655.500000	75.780818
654.000000	75.812574
652.500000	75.801186
651.000000	75.772334
649.500000	75.748382
648.000000	75.746150
646.500000	75.709772
645.000000	75.684925
643.500000	75.705942
642.000000	75.671489
640.500000	75.667171
639.000000	75.666614
637.500000	75.630231
636.000000	75.569028
634.500000	75.551226
633.000000	75.569326
631.500000	75.598962
630.000000	75.572437
628.500000	75.493970
627.000000	75.490898
625.500000	75.488309
624.000000	75.437569
622.500000	75.394529
621.000000	75.409860
619.500000	75.443644
618.000000	75.382691
616.500000	75.376288
615.000000	75.387004
613.500000	75.381272
612.000000	75.297417
610.500000	75.273965
609.000000	75.295650
607.500000	75.270871
606.000000	75.243060
604.500000	75.225608
603.000000	75.209509
601.500000	75.170156
600.000000	75.127570
598.500000	75.102937
597.000000	75.139036
595.500000	75.128743
594.000000	75.056171
592.500000	75.010461
591.000000	75.040110
589.500000	75.013169
588.000000	74.973139
586.500000	74.937556
585.000000	74.907386
583.500000	74.885128
582.000000	74.873091
580.500000	74.839257
579.000000	74.816988
577.500000	74.834868
576.000000	74.810660
574.500000	74.774532
573.000000	74.740613
571.500000	74.692294
570.000000	74.652882
568.500000	74.594973
567.000000	74.556448
565.500000	74.509820
564.000000	74.454117
562.500000	74.455886
561.000000	74.601940
559.500000	74.758820
558.000000	74.750904
556.500000	74.709417
555.000000	74.716327
553.500000	74.676402
552.000000	74.619555
550.500000	74.617718
549.000000	74.625227
547.500000	74.629828
546.000000	74.623889
544.500000	74.632545
543.000000	74.620418
541.500000	74.602015
540.000000	74.580333
538.500000	74.562961
537.000000	74.567165
535.500000	74.550577
534.000000	74.535896
532.500000	74.538953
531.000000	74.553512
529.500000	74.540560
528.000000	74.563471
526.500000	74.555874
525.000000	74.507551
523.500000	74.456478
522.000000	74.402118
520.500000	74.327512
519.000000	74.214403
517.500000	74.082354
516.000000	73.933384
514.500000	73.724282
513.000000	73.509899
511.500000	73.265127
510.000000	73.000937
508.500000	72.747322
507.000000	72.504066
505.500000	72.313643
504.000000	72.149384
502.500000	72.006021
501.000000	71.943856
499.500000	71.909399
498.000000	71.949780
496.500000	71.987672
495.000000	72.034787
493.500000	72.095612
492.000000	72.172290
490.500000	72.284914
489.000000	72.416298
487.500000	72.579827
486.000000	72.692358
484.500000	72.902541
483.000000	73.268120
481.500000	73.655616
480.000000	73.789425
478.500000	73.593724
477.000000	73.340415
475.500000	73.230437
474.000000	73.141504
472.500000	73.029485
471.000000	72.850674
469.500000	72.667488
468.000000	72.427220
466.500000	72.132259
465.000000	71.845682
463.500000	71.617397
462.000000	71.364372
460.500000	71.219512
459.000000	71.070372
457.500000	70.997560
456.000000	70.905650
454.500000	70.918101
453.000000	70.884383
451.500000	70.859107
450.000000	70.847318
448.500000	70.853937
447.000000	70.825519
445.500000	70.875502
444.000000	71.164470
442.500000	71.289290
441.000000	71.261796
439.500000	71.187918
438.000000	71.097174
436.500000	71.078393
435.000000	71.075586
433.500000	71.031561
432.000000	70.929963
430.500000	70.890070
429.000000	70.799485
427.500000	70.811176
426.000000	70.713330
424.500000	70.699613
423.000000	70.746461
421.500000	70.585151
420.000000	70.566171
418.500000	70.486393
417.000000	70.476350
415.500000	70.424434
414.000000	70.365998
412.500000	70.269994
411.000000	70.223181
409.500000	70.079839
408.000000	70.053990
406.500000	69.960058
405.000000	69.938709
403.500000	69.828347
402.000000	69.712103
400.500000	69.708032
399.000000	69.580809
397.500000	69.531694
396.000000	69.373279
394.500000	69.335762
393.000000	69.294703
391.500000	69.160241
390.000000	69.008534
388.500000	68.950245
387.000000	68.847830
385.500000	68.704227
384.000000	68.527801
382.500000	68.276724
381.000000	68.013745
379.500000	67.711434
378.000000	67.603414
376.500000	68.240011
375.000000	68.427848
373.500000	67.617941
372.000000	66.757332
370.500000	65.619866
369.000000	64.495243
367.500000	63.265914
366.000000	61.731435
364.500000	59.760571
363.000000	57.601229
361.500000	54.956984
360.000000	51.763114
358.500000	48.334895
357.000000	44.059820
355.500000	39.266747
354.000000	34.160793
352.500000	28.669158
351.000000	23.191430
349.500000	17.948389
348.000000	13.071057
346.500000	8.900626
345.000000	5.552964
343.500000	3.131058
342.000000	1.557015
340.500000	0.668838
339.000000	0.175130
337.500000	-0.002227
336.000000	-0.041779
334.500000	-0.051609
333.000000	-0.046706
331.500000	-0.047706
330.000000	-0.040797
328.500000	-0.037269
327.000000	-0.041508
325.500000	-0.039877
324.000000	-0.035658
322.500000	-0.041156
321.000000	-0.043630
319.500000	-0.036380
318.000000	0.009507
316.500000	-0.025081
315.000000	-0.026348
313.500000	-0.027089
312.000000	-0.030590
310.500000	-0.023753
309.000000	-0.019918
307.500000	-0.006807
306.000000	-0.004358
304.500000	-0.005511
303.000000	-0.002660
301.500000	-0.007413
300.000000	-0.013325
