PE UV       SUBTECH     SPECTRUM    ASCII       PEDS        4.00        
   -1
Sample61.Sample.Raw.asc
21/04/15
11:02:39.00
21/04/15
11:02:39.00
Administrator

300.000000
1
Lambda 850
850L1710193
PerkinElmer UV WinLab 6.4.0.973 / 2.02.06 Lambda 800 UV/VIS, Jan 28 2016 16:58:34

0
0
2
0
0
UV/VIS
1
1
1
RBeamAtt,SBeamAtt,60mm sphere
0
0
0
0
Fix
 
0
0.2
0
0
0
 
 
 
0
 
0
340
0
Front
100
 
S:100 R:100
 
0
0
0
 
0
 
 
 
0
 
 
0
0
0
0
0
 
 
 
 
0
0


0
0
#HDR
-1
-1
#GR
nm
%T
1.0
0.0
750.000000
-1.500000
301
8
74.371735
-0.035813
#DATA
750.000000	74.116923
748.500000	74.310856
747.000000	74.125049
745.500000	74.301383
744.000000	74.158574
742.500000	74.205079
741.000000	74.371735
739.500000	74.292432
738.000000	74.232831
736.500000	74.126291
735.000000	74.279562
733.500000	74.100589
732.000000	74.157427
730.500000	74.289229
729.000000	74.113097
727.500000	74.213671
726.000000	74.133077
724.500000	74.168452
723.000000	74.071296
721.500000	74.211604
720.000000	74.202437
718.500000	74.080536
717.000000	74.088420
715.500000	74.055613
714.000000	74.154601
712.500000	74.062736
711.000000	73.995539
709.500000	73.994117
708.000000	74.008630
706.500000	73.894367
705.000000	74.019470
703.500000	74.050581
702.000000	73.958067
700.500000	73.948202
699.000000	73.934627
697.500000	73.957695
696.000000	73.889888
694.500000	73.838260
693.000000	73.902957
691.500000	73.870715
690.000000	73.698549
688.500000	73.816677
687.000000	73.790651
685.500000	73.903887
684.000000	73.921986
682.500000	73.961014
681.000000	73.801433
679.500000	73.814052
678.000000	73.835923
676.500000	73.707874
675.000000	73.745972
673.500000	73.698197
672.000000	73.785057
670.500000	73.732616
669.000000	73.751972
667.500000	73.734984
666.000000	73.674993
664.500000	73.707618
663.000000	73.697040
661.500000	73.640831
660.000000	73.645409
658.500000	73.706165
657.000000	73.590019
655.500000	73.561629
654.000000	73.567323
652.500000	73.546240
651.000000	73.570896
649.500000	73.546518
648.000000	73.496714
646.500000	73.521238
645.000000	73.507483
643.500000	73.492523
642.000000	73.453723
640.500000	73.446410
639.000000	73.383347
637.500000	73.356093
636.000000	73.401653
634.500000	73.389048
633.000000	73.343817
631.500000	73.331247
630.000000	73.316417
628.500000	73.323536
627.000000	73.325041
625.500000	73.264242
624.000000	73.210680
622.500000	73.174688
621.000000	73.179480
619.500000	73.181178
618.000000	73.168532
616.500000	73.096097
615.000000	73.061697
613.500000	73.063223
612.000000	73.102232
610.500000	73.094306
609.000000	73.056792
607.500000	73.034869
606.000000	73.004181
604.500000	73.002404
603.000000	73.033315
601.500000	72.957716
600.000000	72.920115
598.500000	72.900239
597.000000	72.899032
595.500000	72.847430
594.000000	72.782479
592.500000	72.758244
591.000000	72.754204
589.500000	72.733792
588.000000	72.699005
586.500000	72.676290
585.000000	72.660903
583.500000	72.640211
582.000000	72.585880
580.500000	72.561140
579.000000	72.576258
577.500000	72.560134
576.000000	72.535568
574.500000	72.509093
573.000000	72.514754
571.500000	72.475965
570.000000	72.410629
568.500000	72.391525
567.000000	72.341644
565.500000	72.287576
564.000000	72.222483
562.500000	72.191811
561.000000	72.352835
559.500000	72.459428
558.000000	72.404154
556.500000	72.383890
555.000000	72.379804
553.500000	72.380342
552.000000	72.334280
550.500000	72.272919
549.000000	72.274693
547.500000	72.245317
546.000000	72.221020
544.500000	72.221135
543.000000	72.156953
541.500000	72.143726
540.000000	72.141635
538.500000	72.124393
537.000000	72.129032
535.500000	72.112322
534.000000	72.046643
532.500000	72.024236
531.000000	72.038880
529.500000	72.038368
528.000000	72.021658
526.500000	71.979713
525.000000	71.931555
523.500000	71.858157
522.000000	71.774406
520.500000	71.681239
519.000000	71.594872
517.500000	71.481291
516.000000	71.328881
514.500000	71.148877
513.000000	70.933183
511.500000	70.707237
510.000000	70.490285
508.500000	70.279701
507.000000	70.070295
505.500000	69.888800
504.000000	69.802285
502.500000	69.724318
501.000000	69.734771
499.500000	69.789969
498.000000	69.850329
496.500000	69.954655
495.000000	70.070734
493.500000	70.241001
492.000000	70.391189
490.500000	70.489007
489.000000	70.660015
487.500000	70.791593
486.000000	70.945136
484.500000	71.100239
483.000000	71.350613
481.500000	71.692549
480.000000	71.751555
478.500000	71.490756
477.000000	71.184460
475.500000	71.005099
474.000000	70.911167
472.500000	70.742861
471.000000	70.586378
469.500000	70.376793
468.000000	70.120888
466.500000	69.852279
465.000000	69.611531
463.500000	69.375889
462.000000	69.191570
460.500000	69.078687
459.000000	68.982157
457.500000	68.954362
456.000000	68.907431
454.500000	68.952875
453.000000	68.967938
451.500000	69.020378
450.000000	69.035176
448.500000	69.022117
447.000000	69.020615
445.500000	69.092713
444.000000	69.319646
442.500000	69.513798
441.000000	69.396014
439.500000	69.325505
438.000000	69.181372
436.500000	69.166182
435.000000	69.088366
433.500000	69.026537
432.000000	68.930078
430.500000	68.857136
429.000000	68.704363
427.500000	68.727813
426.000000	68.702809
424.500000	68.567742
423.000000	68.518846
421.500000	68.412435
420.000000	68.395747
418.500000	68.255563
417.000000	68.237687
415.500000	68.131659
414.000000	68.074780
412.500000	67.932320
411.000000	67.768680
409.500000	67.755656
408.000000	67.563746
406.500000	67.509713
405.000000	67.416908
403.500000	67.408943
402.000000	67.227288
400.500000	67.117054
399.000000	67.065487
397.500000	66.810728
396.000000	66.822321
394.500000	66.646832
393.000000	66.485975
391.500000	66.394777
390.000000	66.279323
388.500000	66.119391
387.000000	65.910641
385.500000	65.740484
384.000000	65.486041
382.500000	65.201785
381.000000	64.836164
379.500000	64.378128
378.000000	64.179287
376.500000	64.593929
375.000000	64.675971
373.500000	63.627608
372.000000	62.521480
370.500000	61.290264
369.000000	59.817091
367.500000	58.078931
366.000000	55.988032
364.500000	53.544394
363.000000	50.737468
361.500000	47.322054
360.000000	43.419972
358.500000	38.969906
357.000000	34.124773
355.500000	28.853939
354.000000	23.482147
352.500000	18.174694
351.000000	13.332104
349.500000	9.196402
348.000000	5.987581
346.500000	3.612391
345.000000	2.060815
343.500000	1.094516
342.000000	0.537699
340.500000	0.250208
339.000000	0.078789
337.500000	0.006684
336.000000	0.000279
334.500000	-0.014037
333.000000	-0.009678
331.500000	-0.035813
330.000000	-0.013050
328.500000	-0.010611
327.000000	-0.018097
325.500000	-0.012414
324.000000	-0.015575
322.500000	-0.020839
321.000000	-0.028567
319.500000	-0.028260
318.000000	0.019368
316.500000	-0.021704
315.000000	-0.018515
313.500000	-0.029704
312.000000	-0.022702
310.500000	-0.021681
309.000000	-0.016511
307.500000	-0.012372
306.000000	-0.003409
304.500000	-0.009299
303.000000	-0.003900
301.500000	-0.007323
300.000000	-0.006474
