PE UV       SUBTECH     SPECTRUM    ASCII       PEDS        4.00        
   -1
Sample242.Sample.Raw.asc
21/02/10
10:42:27.00
21/02/10
10:42:27.00
Administrator

300.000000
1
Lambda 850
850L1710193
PerkinElmer UV WinLab 6.4.0.973 / 2.02.06 Lambda 800 UV/VIS, Jan 28 2016 16:58:34

0
0
2
0
0
UV/VIS
1
1
1
RBeamAtt,SBeamAtt,60mm sphere
0
0
0
0
Fix
 
0
0.2
0
0
0
 
 
 
0
 
0
319.2
0
Front
100
 
S:100 R:100
 
0
0
0
 
0
 
 
 
0
 
 
0
0
0
0
0
 
 
 
 
0
0


0
0
#HDR
-1
-1
#GR
nm
%T
1.0
0.0
750.000000
-1.500000
301
8
72.000382
-0.031115
#DATA
750.000000	71.703316
748.500000	71.913900
747.000000	72.000382
745.500000	71.908508
744.000000	71.907851
742.500000	71.710443
741.000000	71.669038
739.500000	71.662206
738.000000	71.793770
736.500000	71.536315
735.000000	71.672267
733.500000	71.585029
732.000000	71.577342
730.500000	71.610584
729.000000	71.416154
727.500000	71.532388
726.000000	71.482362
724.500000	71.438624
723.000000	71.432190
721.500000	71.329243
720.000000	71.403919
718.500000	71.319277
717.000000	71.258663
715.500000	71.343606
714.000000	71.217538
712.500000	71.243261
711.000000	71.152803
709.500000	71.033965
708.000000	71.062751
706.500000	71.057021
705.000000	71.008419
703.500000	70.993970
702.000000	70.936828
700.500000	71.035460
699.000000	70.932919
697.500000	70.945591
696.000000	70.901367
694.500000	70.902276
693.000000	70.883210
691.500000	70.796059
690.000000	70.546524
688.500000	70.685640
687.000000	70.744410
685.500000	70.669144
684.000000	70.647318
682.500000	70.639635
681.000000	70.484980
679.500000	70.486685
678.000000	70.448427
676.500000	70.374376
675.000000	70.349598
673.500000	70.318211
672.000000	70.272529
670.500000	70.280200
669.000000	70.135822
667.500000	70.021529
666.000000	70.016845
664.500000	70.022912
663.000000	69.895212
661.500000	69.794927
660.000000	69.710206
658.500000	69.679041
657.000000	69.526214
655.500000	69.477671
654.000000	69.433139
652.500000	69.399871
651.000000	69.248067
649.500000	69.164231
648.000000	69.075755
646.500000	68.981836
645.000000	68.900308
643.500000	68.877738
642.000000	68.786766
640.500000	68.607643
639.000000	68.485692
637.500000	68.462397
636.000000	68.342845
634.500000	68.188659
633.000000	68.090984
631.500000	68.014708
630.000000	67.913392
628.500000	67.838975
627.000000	67.702796
625.500000	67.643485
624.000000	67.540020
622.500000	67.392885
621.000000	67.274118
619.500000	67.169049
618.000000	67.017641
616.500000	66.946126
615.000000	66.805350
613.500000	66.685619
612.000000	66.593900
610.500000	66.485714
609.000000	66.324525
607.500000	66.172891
606.000000	66.105086
604.500000	66.018740
603.000000	65.879209
601.500000	65.773249
600.000000	65.642171
598.500000	65.524467
597.000000	65.422838
595.500000	65.325638
594.000000	65.180563
592.500000	65.019009
591.000000	64.905544
589.500000	64.797090
588.000000	64.706301
586.500000	64.598534
585.000000	64.426840
583.500000	64.326819
582.000000	64.238854
580.500000	64.115010
579.000000	64.012749
577.500000	63.926370
576.000000	63.839969
574.500000	63.713010
573.000000	63.584807
571.500000	63.476881
570.000000	63.347617
568.500000	63.217397
567.000000	63.128265
565.500000	63.046945
564.000000	62.916319
562.500000	62.833252
561.000000	62.881062
559.500000	62.861467
558.000000	62.781055
556.500000	62.713086
555.000000	62.634405
553.500000	62.592832
552.000000	62.492224
550.500000	62.380315
549.000000	62.318837
547.500000	62.270500
546.000000	62.209407
544.500000	62.122679
543.000000	62.047029
541.500000	62.009975
540.000000	61.973708
538.500000	61.904722
537.000000	61.871059
535.500000	61.846920
534.000000	61.779962
532.500000	61.744945
531.000000	61.705290
529.500000	61.643570
528.000000	61.601150
526.500000	61.536549
525.000000	61.475723
523.500000	61.420518
522.000000	61.330495
520.500000	61.229213
519.000000	61.083319
517.500000	60.932617
516.000000	60.763853
514.500000	60.545101
513.000000	60.283310
511.500000	59.990436
510.000000	59.751580
508.500000	59.458245
507.000000	59.151276
505.500000	58.904009
504.000000	58.642096
502.500000	58.445414
501.000000	58.290879
499.500000	58.136035
498.000000	58.016514
496.500000	57.943100
495.000000	57.857955
493.500000	57.809491
492.000000	57.835001
490.500000	57.828220
489.000000	57.871025
487.500000	57.932589
486.000000	58.027577
484.500000	58.248642
483.000000	58.607922
481.500000	59.005376
480.000000	59.189357
478.500000	59.031516
477.000000	58.876105
475.500000	58.779061
474.000000	58.713308
472.500000	58.613784
471.000000	58.454712
469.500000	58.272984
468.000000	58.074161
466.500000	57.824529
465.000000	57.545705
463.500000	57.265706
462.000000	57.040360
460.500000	56.835629
459.000000	56.667563
457.500000	56.497688
456.000000	56.333596
454.500000	56.188243
453.000000	56.112650
451.500000	55.986913
450.000000	55.896919
448.500000	55.816728
447.000000	55.666155
445.500000	55.627995
444.000000	55.776079
442.500000	55.836604
441.000000	55.740041
439.500000	55.600256
438.000000	55.504632
436.500000	55.403762
435.000000	55.285663
433.500000	55.212437
432.000000	55.128884
430.500000	55.055660
429.000000	54.944969
427.500000	54.869200
426.000000	54.741776
424.500000	54.686030
423.000000	54.561766
421.500000	54.454370
420.000000	54.340197
418.500000	54.235966
417.000000	54.133297
415.500000	54.021941
414.000000	53.967282
412.500000	53.828969
411.000000	53.714713
409.500000	53.632003
408.000000	53.522596
406.500000	53.388577
405.000000	53.222709
403.500000	53.193615
402.000000	53.093576
400.500000	52.964960
399.000000	52.874407
397.500000	52.714741
396.000000	52.634922
394.500000	52.524037
393.000000	52.366714
391.500000	52.261046
390.000000	52.115199
388.500000	52.051541
387.000000	51.909576
385.500000	51.823336
384.000000	51.573165
382.500000	51.478936
381.000000	51.271188
379.500000	51.080273
378.000000	50.952149
376.500000	51.473222
375.000000	51.593931
373.500000	50.979431
372.000000	50.299292
370.500000	49.580120
369.000000	48.833685
367.500000	48.020029
366.000000	46.892904
364.500000	45.588021
363.000000	44.113057
361.500000	42.343560
360.000000	40.273365
358.500000	37.618249
357.000000	34.697619
355.500000	31.526858
354.000000	27.752278
352.500000	23.721338
351.000000	19.572364
349.500000	15.481164
348.000000	11.593935
346.500000	8.185393
345.000000	5.280388
343.500000	3.104954
342.000000	1.626426
340.500000	0.734167
339.000000	0.291399
337.500000	0.112490
336.000000	0.051913
334.500000	0.043761
333.000000	0.042124
331.500000	0.044602
330.000000	0.050573
328.500000	0.049381
327.000000	0.058844
325.500000	0.053234
324.000000	0.049312
322.500000	0.057149
321.000000	0.049044
319.500000	0.047451
318.000000	0.000472
316.500000	-0.022547
315.000000	-0.027414
313.500000	-0.031115
312.000000	-0.029569
310.500000	-0.028585
309.000000	-0.022926
307.500000	-0.018893
306.000000	-0.011886
304.500000	-0.007337
303.000000	-0.009343
301.500000	-0.013082
300.000000	-0.012131
