PE UV       SUBTECH     SPECTRUM    ASCII       PEDS        4.00        
   -1
Sample228.Sample.Raw.asc
21/02/05
14:30:54.00
21/02/05
14:30:54.00
Administrator

300.000000
1
Lambda 850
850L1710193
PerkinElmer UV WinLab 6.4.0.973 / 2.02.06 Lambda 800 UV/VIS, Jan 28 2016 16:58:34

0
0
2
0
0
UV/VIS
1
1
1
RBeamAtt,SBeamAtt,60mm sphere
0
0
0
0
Fix
 
0
0.2
0
0
0
 
 
 
0
 
0
340
0
Front
100
 
S:100 R:100
 
0
0
0
 
0
 
 
 
0
 
 
0
0
0
0
0
 
 
 
 
0
0


0
0
#HDR
-1
-1
#GR
nm
%T
1.0
0.0
750.000000
-1.500000
301
8
75.256043
-0.053908
#DATA
750.000000	74.983342
748.500000	75.130603
747.000000	75.127019
745.500000	75.050631
744.000000	75.081167
742.500000	75.256043
741.000000	75.162062
739.500000	75.028646
738.000000	75.013309
736.500000	75.230698
735.000000	75.084881
733.500000	74.952572
732.000000	74.939418
730.500000	75.062165
729.000000	74.974406
727.500000	74.959740
726.000000	74.965449
724.500000	74.945788
723.000000	74.964340
721.500000	74.857084
720.000000	74.786705
718.500000	74.864476
717.000000	75.005734
715.500000	74.970798
714.000000	74.773049
712.500000	74.839422
711.000000	74.853285
709.500000	74.829248
708.000000	74.779224
706.500000	74.892905
705.000000	74.969897
703.500000	74.837760
702.000000	74.805607
700.500000	74.675441
699.000000	74.786397
697.500000	74.735598
696.000000	74.686072
694.500000	74.660657
693.000000	74.657770
691.500000	74.706209
690.000000	74.464533
688.500000	74.706213
687.000000	74.642570
685.500000	74.537079
684.000000	74.648633
682.500000	74.654200
681.000000	74.611121
679.500000	74.673715
678.000000	74.642213
676.500000	74.560843
675.000000	74.528693
673.500000	74.549928
672.000000	74.550088
670.500000	74.542710
669.000000	74.505229
667.500000	74.539114
666.000000	74.505214
664.500000	74.505259
663.000000	74.458461
661.500000	74.452155
660.000000	74.468987
658.500000	74.418912
657.000000	74.371395
655.500000	74.442800
654.000000	74.414172
652.500000	74.368899
651.000000	74.294232
649.500000	74.261018
648.000000	74.279967
646.500000	74.327057
645.000000	74.341120
643.500000	74.266275
642.000000	74.274415
640.500000	74.275370
639.000000	74.260437
637.500000	74.176670
636.000000	74.187100
634.500000	74.215587
633.000000	74.183340
631.500000	74.181814
630.000000	74.141540
628.500000	74.105145
627.000000	74.072058
625.500000	74.083684
624.000000	74.110453
622.500000	74.071377
621.000000	74.060231
619.500000	73.994085
618.000000	74.013136
616.500000	74.038055
615.000000	73.938369
613.500000	73.884687
612.000000	73.890415
610.500000	73.913549
609.000000	73.910633
607.500000	73.828576
606.000000	73.839515
604.500000	73.852059
603.000000	73.815736
601.500000	73.802144
600.000000	73.818261
598.500000	73.783564
597.000000	73.731612
595.500000	73.669131
594.000000	73.714495
592.500000	73.693627
591.000000	73.656534
589.500000	73.639285
588.000000	73.631184
586.500000	73.616210
585.000000	73.602746
583.500000	73.574759
582.000000	73.549161
580.500000	73.537586
579.000000	73.474970
577.500000	73.462932
576.000000	73.468229
574.500000	73.446550
573.000000	73.437536
571.500000	73.421259
570.000000	73.420788
568.500000	73.394702
567.000000	73.326601
565.500000	73.253252
564.000000	73.164613
562.500000	73.163701
561.000000	73.320694
559.500000	73.454278
558.000000	73.447393
556.500000	73.459849
555.000000	73.473567
553.500000	73.454791
552.000000	73.465323
550.500000	73.438686
549.000000	73.426298
547.500000	73.439231
546.000000	73.442703
544.500000	73.441103
543.000000	73.422097
541.500000	73.415514
540.000000	73.411884
538.500000	73.401013
537.000000	73.432607
535.500000	73.442855
534.000000	73.462976
532.500000	73.461412
531.000000	73.453709
529.500000	73.457674
528.000000	73.422620
526.500000	73.417635
525.000000	73.396339
523.500000	73.356265
522.000000	73.303071
520.500000	73.234622
519.000000	73.145591
517.500000	73.023840
516.000000	72.863845
514.500000	72.662900
513.000000	72.476402
511.500000	72.256544
510.000000	72.002006
508.500000	71.718725
507.000000	71.475284
505.500000	71.309251
504.000000	71.149281
502.500000	71.020433
501.000000	70.913758
499.500000	70.915243
498.000000	70.962114
496.500000	71.053117
495.000000	71.106425
493.500000	71.171247
492.000000	71.253758
490.500000	71.416057
489.000000	71.523505
487.500000	71.659232
486.000000	71.816949
484.500000	72.062884
483.000000	72.405532
481.500000	72.777152
480.000000	72.928053
478.500000	72.721970
477.000000	72.484854
475.500000	72.367113
474.000000	72.310014
472.500000	72.194618
471.000000	72.033865
469.500000	71.862071
468.000000	71.636654
466.500000	71.370479
465.000000	71.093657
463.500000	70.846091
462.000000	70.619186
460.500000	70.485110
459.000000	70.372589
457.500000	70.224924
456.000000	70.216514
454.500000	70.173836
453.000000	70.152491
451.500000	70.123759
450.000000	70.091632
448.500000	70.111794
447.000000	70.031448
445.500000	70.013811
444.000000	70.337696
442.500000	70.472542
441.000000	70.331360
439.500000	70.277469
438.000000	70.191964
436.500000	70.103331
435.000000	70.013539
433.500000	70.013632
432.000000	70.008731
430.500000	69.884009
429.000000	69.808344
427.500000	69.795067
426.000000	69.709017
424.500000	69.649033
423.000000	69.526699
421.500000	69.485597
420.000000	69.426160
418.500000	69.305888
417.000000	69.203344
415.500000	69.149849
414.000000	69.095863
412.500000	69.084922
411.000000	68.930549
409.500000	68.772587
408.000000	68.683923
406.500000	68.647665
405.000000	68.574240
403.500000	68.452846
402.000000	68.366444
400.500000	68.228088
399.000000	68.148939
397.500000	68.040202
396.000000	67.924099
394.500000	67.822070
393.000000	67.662197
391.500000	67.511378
390.000000	67.427862
388.500000	67.345361
387.000000	67.096044
385.500000	66.958739
384.000000	66.729246
382.500000	66.494654
381.000000	66.197957
379.500000	65.944163
378.000000	65.769924
376.500000	66.555570
375.000000	66.523625
373.500000	65.714604
372.000000	64.903102
370.500000	63.807347
369.000000	62.818121
367.500000	61.621330
366.000000	60.393738
364.500000	58.754974
363.000000	56.819788
361.500000	54.433693
360.000000	51.750964
358.500000	48.711519
357.000000	44.911173
355.500000	40.578699
354.000000	35.974209
352.500000	31.012702
351.000000	25.684835
349.500000	20.531294
348.000000	15.541516
346.500000	11.103856
345.000000	7.307083
343.500000	4.393496
342.000000	2.365403
340.500000	1.094797
339.000000	0.406105
337.500000	0.091688
336.000000	-0.019125
334.500000	-0.014299
333.000000	-0.030581
331.500000	-0.023822
330.000000	-0.026156
328.500000	-0.012385
327.000000	-0.019188
325.500000	-0.007184
324.000000	-0.015108
322.500000	-0.019134
321.000000	-0.017728
319.500000	-0.031511
318.000000	-0.011114
316.500000	-0.038041
315.000000	-0.043915
313.500000	-0.053908
312.000000	-0.032928
310.500000	-0.033539
309.000000	-0.026580
307.500000	-0.023533
306.000000	-0.029747
304.500000	-0.015666
303.000000	-0.014631
301.500000	-0.013025
300.000000	-0.009792
