PE UV       SUBTECH     SPECTRUM    ASCII       PEDS        4.00        
   -1
Sample152.Sample.Raw.asc
21/01/27
12:17:40.00
21/01/27
12:17:40.00
Administrator

300.000000
1
Lambda 850
850L1710193
PerkinElmer UV WinLab 6.4.0.973 / 2.02.06 Lambda 800 UV/VIS, Jan 28 2016 16:58:34

0
0
2
0
0
UV/VIS
1
1
1
RBeamAtt,SBeamAtt,60mm sphere
0
0
0
0
Fix
 
0
0.2
0
0
0
 
 
 
0
 
0
319.2
0
Front
100
 
S:100 R:100
 
0
0
0
 
0
 
 
 
0
 
 
0
0
0
0
0
 
 
 
 
0
0


0
0
#HDR
-1
-1
#GR
nm
%T
1.0
0.0
750.000000
-1.500000
301
8
74.722307
-0.026562
#DATA
750.000000	74.405481
748.500000	74.604401
747.000000	74.722307
745.500000	74.709446
744.000000	74.399434
742.500000	74.411422
741.000000	74.473751
739.500000	74.641186
738.000000	74.541117
736.500000	74.466868
735.000000	74.434524
733.500000	74.424637
732.000000	74.365025
730.500000	74.416295
729.000000	74.313749
727.500000	74.292169
726.000000	74.386839
724.500000	74.281140
723.000000	74.165970
721.500000	74.367695
720.000000	74.213218
718.500000	74.188004
717.000000	74.072092
715.500000	74.113488
714.000000	74.142855
712.500000	73.958498
711.000000	73.973451
709.500000	74.034166
708.000000	73.965617
706.500000	73.980069
705.000000	73.995012
703.500000	73.967395
702.000000	73.917747
700.500000	73.924268
699.000000	73.826569
697.500000	73.839818
696.000000	73.850858
694.500000	73.756483
693.000000	73.719854
691.500000	73.769911
690.000000	73.510853
688.500000	73.697155
687.000000	73.667237
685.500000	73.707252
684.000000	73.628999
682.500000	73.547043
681.000000	73.563647
679.500000	73.564736
678.000000	73.511584
676.500000	73.363783
675.000000	73.367919
673.500000	73.396751
672.000000	73.333728
670.500000	73.294063
669.000000	73.224062
667.500000	73.245819
666.000000	73.182498
664.500000	73.115509
663.000000	73.043607
661.500000	73.055441
660.000000	72.973367
658.500000	72.910300
657.000000	72.889678
655.500000	72.816811
654.000000	72.753294
652.500000	72.713717
651.000000	72.664201
649.500000	72.548577
648.000000	72.455198
646.500000	72.423254
645.000000	72.365255
643.500000	72.312716
642.000000	72.275621
640.500000	72.159697
639.000000	72.084513
637.500000	72.050111
636.000000	71.971248
634.500000	71.915208
633.000000	71.844191
631.500000	71.727104
630.000000	71.676286
628.500000	71.586115
627.000000	71.553946
625.500000	71.458683
624.000000	71.337542
622.500000	71.287905
621.000000	71.158170
619.500000	71.128621
618.000000	71.083887
616.500000	70.974925
615.000000	70.867225
613.500000	70.814644
612.000000	70.709754
610.500000	70.636537
609.000000	70.516661
607.500000	70.451172
606.000000	70.378036
604.500000	70.306432
603.000000	70.206545
601.500000	70.056175
600.000000	69.985334
598.500000	69.892565
597.000000	69.847351
595.500000	69.759227
594.000000	69.618859
592.500000	69.544612
591.000000	69.455796
589.500000	69.356390
588.000000	69.269348
586.500000	69.185273
585.000000	69.070342
583.500000	68.951772
582.000000	68.866205
580.500000	68.789336
579.000000	68.704179
577.500000	68.618655
576.000000	68.513009
574.500000	68.395571
573.000000	68.265182
571.500000	68.207649
570.000000	68.105709
568.500000	67.958606
567.000000	67.871472
565.500000	67.747189
564.000000	67.631467
562.500000	67.582562
561.000000	67.669945
559.500000	67.712938
558.000000	67.624360
556.500000	67.534704
555.000000	67.457124
553.500000	67.376158
552.000000	67.274497
550.500000	67.180054
549.000000	67.100019
547.500000	67.045200
546.000000	66.954605
544.500000	66.867637
543.000000	66.844679
541.500000	66.795406
540.000000	66.719357
538.500000	66.660794
537.000000	66.608318
535.500000	66.518208
534.000000	66.440246
532.500000	66.402868
531.000000	66.365865
529.500000	66.306910
528.000000	66.252396
526.500000	66.175405
525.000000	66.086570
523.500000	66.002747
522.000000	65.880927
520.500000	65.745799
519.000000	65.605115
517.500000	65.437586
516.000000	65.237589
514.500000	64.992363
513.000000	64.704782
511.500000	64.400557
510.000000	64.102812
508.500000	63.824597
507.000000	63.490683
505.500000	63.184250
504.000000	62.931764
502.500000	62.744066
501.000000	62.586336
499.500000	62.429157
498.000000	62.312982
496.500000	62.205088
495.000000	62.176152
493.500000	62.137456
492.000000	62.150876
490.500000	62.134029
489.000000	62.170917
487.500000	62.204624
486.000000	62.282983
484.500000	62.441446
483.000000	62.730792
481.500000	63.071649
480.000000	63.230800
478.500000	63.008086
477.000000	62.782113
475.500000	62.612795
474.000000	62.507874
472.500000	62.339145
471.000000	62.168394
469.500000	61.966423
468.000000	61.707494
466.500000	61.391125
465.000000	61.108695
463.500000	60.816903
462.000000	60.533968
460.500000	60.285339
459.000000	60.113603
457.500000	59.917697
456.000000	59.824098
454.500000	59.698677
453.000000	59.567755
451.500000	59.496703
450.000000	59.389905
448.500000	59.266547
447.000000	59.170886
445.500000	59.084271
444.000000	59.271272
442.500000	59.400833
441.000000	59.256563
439.500000	59.155558
438.000000	59.053747
436.500000	58.897711
435.000000	58.802482
433.500000	58.735429
432.000000	58.627004
430.500000	58.590191
429.000000	58.497510
427.500000	58.331124
426.000000	58.234390
424.500000	58.133164
423.000000	58.097223
421.500000	58.025154
420.000000	57.890664
418.500000	57.875146
417.000000	57.712890
415.500000	57.583075
414.000000	57.493769
412.500000	57.396576
411.000000	57.342505
409.500000	57.184254
408.000000	57.113853
406.500000	57.030395
405.000000	56.898216
403.500000	56.797590
402.000000	56.703496
400.500000	56.595917
399.000000	56.481087
397.500000	56.395834
396.000000	56.314078
394.500000	56.182511
393.000000	56.071507
391.500000	56.047932
390.000000	55.903348
388.500000	55.798152
387.000000	55.624453
385.500000	55.557379
384.000000	55.318901
382.500000	55.174692
381.000000	55.023443
379.500000	54.807430
378.000000	54.605736
376.500000	55.055484
375.000000	55.285777
373.500000	54.646104
372.000000	53.975700
370.500000	53.186771
369.000000	52.276884
367.500000	51.298771
366.000000	50.204151
364.500000	48.707629
363.000000	47.133482
361.500000	45.020697
360.000000	42.765702
358.500000	39.925313
357.000000	36.635923
355.500000	32.913551
354.000000	28.762930
352.500000	24.440030
351.000000	19.989663
349.500000	15.589084
348.000000	11.542468
346.500000	7.971932
345.000000	5.060571
343.500000	2.934017
342.000000	1.479852
340.500000	0.653843
339.000000	0.245318
337.500000	0.091423
336.000000	0.045347
334.500000	0.041217
333.000000	0.042207
331.500000	0.042897
330.000000	0.044589
328.500000	0.050727
327.000000	0.047524
325.500000	0.044792
324.000000	0.050742
322.500000	0.048663
321.000000	0.045657
319.500000	0.044025
318.000000	0.004247
316.500000	-0.025123
315.000000	-0.023054
313.500000	-0.026562
312.000000	-0.023775
310.500000	-0.022187
309.000000	-0.017682
307.500000	-0.013165
306.000000	-0.007877
304.500000	-0.004374
303.000000	-0.008091
301.500000	-0.012578
300.000000	-0.009548
