PE UV       SUBTECH     SPECTRUM    ASCII       PEDS        4.00        
   -1
Sample305.Sample.Raw.asc
21/02/16
15:02:30.00
21/02/16
15:02:30.00
Administrator

300.000000
1
Lambda 850
850L1710193
PerkinElmer UV WinLab 6.4.0.973 / 2.02.06 Lambda 800 UV/VIS, Jan 28 2016 16:58:34

0
0
2
0
0
UV/VIS
1
1
1
RBeamAtt,SBeamAtt,60mm sphere
0
0
0
0
Fix
 
0
0.2
0
0
0
 
 
 
0
 
0
319.2
0
Front
100
 
S:100 R:100
 
0
0
0
 
0
 
 
 
0
 
 
0
0
0
0
0
 
 
 
 
0
0


0
0
#HDR
-1
-1
#GR
nm
%T
1.0
0.0
750.000000
-1.500000
301
8
73.462576
-0.034362
#DATA
750.000000	73.198789
748.500000	73.373421
747.000000	73.462576
745.500000	73.375220
744.000000	73.394703
742.500000	73.422724
741.000000	73.397362
739.500000	73.458248
738.000000	73.301540
736.500000	73.408533
735.000000	73.327523
733.500000	73.372212
732.000000	73.272165
730.500000	73.245302
729.000000	73.256742
727.500000	73.227462
726.000000	73.226542
724.500000	73.127594
723.000000	72.994172
721.500000	73.130586
720.000000	73.055575
718.500000	73.130182
717.000000	73.103839
715.500000	73.080930
714.000000	73.034007
712.500000	72.997145
711.000000	73.027999
709.500000	72.941972
708.000000	73.006339
706.500000	72.956159
705.000000	72.919059
703.500000	72.927121
702.000000	72.930940
700.500000	72.952114
699.000000	72.843416
697.500000	72.783153
696.000000	72.769953
694.500000	72.777969
693.000000	72.685088
691.500000	72.692508
690.000000	72.536359
688.500000	72.666939
687.000000	72.639746
685.500000	72.649999
684.000000	72.670342
682.500000	72.452964
681.000000	72.506294
679.500000	72.505343
678.000000	72.501983
676.500000	72.493124
675.000000	72.468645
673.500000	72.414357
672.000000	72.368031
670.500000	72.335859
669.000000	72.316712
667.500000	72.281153
666.000000	72.217374
664.500000	72.204682
663.000000	72.143107
661.500000	72.108757
660.000000	71.995029
658.500000	72.039132
657.000000	72.001156
655.500000	71.899476
654.000000	71.786110
652.500000	71.807591
651.000000	71.682104
649.500000	71.683252
648.000000	71.702312
646.500000	71.637931
645.000000	71.528253
643.500000	71.490476
642.000000	71.473388
640.500000	71.390338
639.000000	71.296862
637.500000	71.272052
636.000000	71.189822
634.500000	71.117663
633.000000	71.065601
631.500000	70.958480
630.000000	70.919706
628.500000	70.794421
627.000000	70.773390
625.500000	70.701276
624.000000	70.614356
622.500000	70.559672
621.000000	70.499271
619.500000	70.415844
618.000000	70.322477
616.500000	70.233377
615.000000	70.130682
613.500000	70.090204
612.000000	70.020212
610.500000	69.925408
609.000000	69.834212
607.500000	69.769225
606.000000	69.738959
604.500000	69.661817
603.000000	69.558753
601.500000	69.500490
600.000000	69.398586
598.500000	69.345810
597.000000	69.292808
595.500000	69.210927
594.000000	69.073404
592.500000	68.989400
591.000000	68.981783
589.500000	68.880174
588.000000	68.767733
586.500000	68.699466
585.000000	68.619914
583.500000	68.549320
582.000000	68.452112
580.500000	68.381192
579.000000	68.336677
577.500000	68.250610
576.000000	68.161389
574.500000	68.087498
573.000000	68.015345
571.500000	67.990812
570.000000	67.925361
568.500000	67.808701
567.000000	67.715134
565.500000	67.646364
564.000000	67.539588
562.500000	67.472486
561.000000	67.596966
559.500000	67.637990
558.000000	67.554778
556.500000	67.531795
555.000000	67.485774
553.500000	67.408497
552.000000	67.347924
550.500000	67.320216
549.000000	67.273321
547.500000	67.229550
546.000000	67.180060
544.500000	67.139767
543.000000	67.145277
541.500000	67.101091
540.000000	67.007863
538.500000	66.975993
537.000000	66.955065
535.500000	66.930834
534.000000	66.933770
532.500000	66.895630
531.000000	66.888842
529.500000	66.875679
528.000000	66.820086
526.500000	66.770082
525.000000	66.741472
523.500000	66.708058
522.000000	66.626239
520.500000	66.529656
519.000000	66.421365
517.500000	66.302575
516.000000	66.123250
514.500000	65.910009
513.000000	65.687959
511.500000	65.454866
510.000000	65.188888
508.500000	64.895449
507.000000	64.616628
505.500000	64.371868
504.000000	64.140742
502.500000	63.985083
501.000000	63.839059
499.500000	63.762368
498.000000	63.691491
496.500000	63.623920
495.000000	63.560733
493.500000	63.582183
492.000000	63.635487
490.500000	63.658771
489.000000	63.731134
487.500000	63.837084
486.000000	63.969860
484.500000	64.156733
483.000000	64.496852
481.500000	64.937857
480.000000	65.123226
478.500000	64.953368
477.000000	64.736950
475.500000	64.648825
474.000000	64.549885
472.500000	64.439194
471.000000	64.332015
469.500000	64.148607
468.000000	63.916460
466.500000	63.693634
465.000000	63.433700
463.500000	63.152337
462.000000	62.894584
460.500000	62.681637
459.000000	62.548878
457.500000	62.421803
456.000000	62.296061
454.500000	62.178372
453.000000	62.092934
451.500000	62.018777
450.000000	61.889994
448.500000	61.793969
447.000000	61.697922
445.500000	61.667739
444.000000	61.872210
442.500000	61.965382
441.000000	61.891883
439.500000	61.712814
438.000000	61.666590
436.500000	61.540819
435.000000	61.473310
433.500000	61.381872
432.000000	61.284688
430.500000	61.173341
429.000000	61.082418
427.500000	60.901586
426.000000	60.905579
424.500000	60.839150
423.000000	60.699339
421.500000	60.592457
420.000000	60.503179
418.500000	60.359902
417.000000	60.253796
415.500000	60.221455
414.000000	60.102619
412.500000	60.014282
411.000000	59.876388
409.500000	59.813291
408.000000	59.718199
406.500000	59.567105
405.000000	59.426124
403.500000	59.343181
402.000000	59.290908
400.500000	59.160076
399.000000	59.059655
397.500000	58.954103
396.000000	58.838636
394.500000	58.633887
393.000000	58.614023
391.500000	58.547107
390.000000	58.326240
388.500000	58.220274
387.000000	58.060859
385.500000	57.960678
384.000000	57.813706
382.500000	57.571586
381.000000	57.504537
379.500000	57.218492
378.000000	56.996365
376.500000	57.473075
375.000000	57.696714
373.500000	57.032282
372.000000	56.288869
370.500000	55.558963
369.000000	54.556874
367.500000	53.679362
366.000000	52.607644
364.500000	51.350855
363.000000	49.687879
361.500000	47.863358
360.000000	45.588872
358.500000	42.945104
357.000000	39.747419
355.500000	36.284066
354.000000	32.209644
352.500000	27.874140
351.000000	23.321898
349.500000	18.695812
348.000000	14.239114
346.500000	10.237205
345.000000	6.825626
343.500000	4.133029
342.000000	2.258490
340.500000	1.076175
339.000000	0.436928
337.500000	0.158674
336.000000	0.065982
334.500000	0.048963
333.000000	0.041436
331.500000	0.043010
330.000000	0.040520
328.500000	0.044333
327.000000	0.046948
325.500000	0.042021
324.000000	0.043942
322.500000	0.043602
321.000000	0.048582
319.500000	0.051671
318.000000	0.001792
316.500000	-0.024726
315.000000	-0.034362
313.500000	-0.026528
312.000000	-0.021589
310.500000	-0.026235
309.000000	-0.017587
307.500000	-0.009288
306.000000	-0.005690
304.500000	-0.002568
303.000000	-0.005423
301.500000	-0.009326
300.000000	-0.009816
