PE UV       SUBTECH     SPECTRUM    ASCII       PEDS        4.00        
   -1
Sample107.Sample.Raw.asc
20/12/17
15:16:28.00
20/12/17
15:16:28.00
Administrator

300.000000
1
Lambda 850
850L1710193
PerkinElmer UV WinLab 6.4.0.973 / 2.02.06 Lambda 800 UV/VIS, Jan 28 2016 16:58:34

0
0
2
0
0
UV/VIS
1
1
1
RBeamAtt,SBeamAtt,60mm sphere
0
0
0
0
Fix
 
0
0.2
0
0
0
 
 
 
0
 
0
319.2
0
Front
100
 
S:100 R:100
 
0
0
0
 
0
 
 
 
0
 
 
0
0
0
0
0
 
 
 
 
0
0


0
0
#HDR
-1
-1
#GR
nm
%T
1.0
0.0
750.000000
-1.500000
301
8
74.976591
-0.034242
#DATA
750.000000	74.641479
748.500000	74.823016
747.000000	74.854174
745.500000	74.874593
744.000000	74.976591
742.500000	74.797226
741.000000	74.959386
739.500000	74.815193
738.000000	74.814083
736.500000	74.725989
735.000000	74.840490
733.500000	74.791370
732.000000	74.739347
730.500000	74.817891
729.000000	74.735089
727.500000	74.665763
726.000000	74.804463
724.500000	74.789367
723.000000	74.734901
721.500000	74.811174
720.000000	74.700009
718.500000	74.659568
717.000000	74.685695
715.500000	74.669032
714.000000	74.547186
712.500000	74.621213
711.000000	74.643650
709.500000	74.630855
708.000000	74.649057
706.500000	74.667488
705.000000	74.574682
703.500000	74.769137
702.000000	74.610564
700.500000	74.563280
699.000000	74.470585
697.500000	74.515901
696.000000	74.474974
694.500000	74.439424
693.000000	74.433381
691.500000	74.384473
690.000000	74.259697
688.500000	74.440589
687.000000	74.401402
685.500000	74.437667
684.000000	74.392058
682.500000	74.397759
681.000000	74.244636
679.500000	74.297935
678.000000	74.314501
676.500000	74.338385
675.000000	74.293515
673.500000	74.254741
672.000000	74.309623
670.500000	74.268432
669.000000	74.174965
667.500000	74.199485
666.000000	74.212137
664.500000	74.169430
663.000000	74.201708
661.500000	74.203443
660.000000	74.164897
658.500000	74.156069
657.000000	74.112010
655.500000	74.103531
654.000000	74.058317
652.500000	74.066117
651.000000	74.085449
649.500000	74.069072
648.000000	73.959850
646.500000	73.964692
645.000000	73.978586
643.500000	73.983143
642.000000	73.963753
640.500000	73.881715
639.000000	73.901378
637.500000	73.909876
636.000000	73.907402
634.500000	73.892039
633.000000	73.837441
631.500000	73.795497
630.000000	73.778299
628.500000	73.768614
627.000000	73.736188
625.500000	73.759215
624.000000	73.763032
622.500000	73.715979
621.000000	73.702601
619.500000	73.690620
618.000000	73.607328
616.500000	73.633022
615.000000	73.618118
613.500000	73.588718
612.000000	73.552239
610.500000	73.524157
609.000000	73.541363
607.500000	73.521179
606.000000	73.482684
604.500000	73.489812
603.000000	73.469253
601.500000	73.454752
600.000000	73.448920
598.500000	73.418180
597.000000	73.395072
595.500000	73.318599
594.000000	73.291239
592.500000	73.281903
591.000000	73.289758
589.500000	73.290148
588.000000	73.236755
586.500000	73.189251
585.000000	73.171259
583.500000	73.178731
582.000000	73.164553
580.500000	73.149581
579.000000	73.111267
577.500000	73.064704
576.000000	73.050750
574.500000	73.053456
573.000000	73.004315
571.500000	72.988855
570.000000	73.001547
568.500000	72.992577
567.000000	72.928005
565.500000	72.858839
564.000000	72.805177
562.500000	72.841492
561.000000	72.999139
559.500000	73.087711
558.000000	73.096642
556.500000	73.107613
555.000000	73.072725
553.500000	73.044394
552.000000	73.050570
550.500000	73.041931
549.000000	73.002363
547.500000	72.995954
546.000000	73.018155
544.500000	72.995875
543.000000	72.967374
541.500000	72.959816
540.000000	72.944648
538.500000	72.910156
537.000000	72.939754
535.500000	72.975688
534.000000	72.970223
532.500000	72.959676
531.000000	72.949962
529.500000	72.956075
528.000000	72.937536
526.500000	72.935674
525.000000	72.928315
523.500000	72.895997
522.000000	72.862931
520.500000	72.811301
519.000000	72.697274
517.500000	72.554766
516.000000	72.371564
514.500000	72.196963
513.000000	71.999597
511.500000	71.747500
510.000000	71.485911
508.500000	71.240125
507.000000	71.004620
505.500000	70.822718
504.000000	70.676004
502.500000	70.557449
501.000000	70.527667
499.500000	70.500734
498.000000	70.504697
496.500000	70.584926
495.000000	70.692200
493.500000	70.813773
492.000000	70.880154
490.500000	71.012427
489.000000	71.174005
487.500000	71.285616
486.000000	71.444122
484.500000	71.671131
483.000000	72.023718
481.500000	72.428258
480.000000	72.548634
478.500000	72.312732
477.000000	72.131932
475.500000	72.030105
474.000000	71.938136
472.500000	71.834833
471.000000	71.663115
469.500000	71.460145
468.000000	71.223662
466.500000	70.958565
465.000000	70.682191
463.500000	70.434829
462.000000	70.222602
460.500000	70.099720
459.000000	69.980526
457.500000	69.840372
456.000000	69.870692
454.500000	69.809359
453.000000	69.815114
451.500000	69.764495
450.000000	69.780306
448.500000	69.774961
447.000000	69.694759
445.500000	69.762579
444.000000	70.023593
442.500000	70.196563
441.000000	70.077520
439.500000	70.000630
438.000000	69.903434
436.500000	69.805494
435.000000	69.778494
433.500000	69.702061
432.000000	69.633649
430.500000	69.622367
429.000000	69.474993
427.500000	69.398636
426.000000	69.349731
424.500000	69.298309
423.000000	69.196060
421.500000	69.173497
420.000000	69.063805
418.500000	68.969409
417.000000	68.945023
415.500000	68.837142
414.000000	68.773448
412.500000	68.621994
411.000000	68.579873
409.500000	68.381768
408.000000	68.347600
406.500000	68.299323
405.000000	68.116355
403.500000	67.986007
402.000000	67.839064
400.500000	67.718119
399.000000	67.584759
397.500000	67.413557
396.000000	67.373709
394.500000	67.190701
393.000000	67.025952
391.500000	66.991605
390.000000	66.727158
388.500000	66.603601
387.000000	66.293642
385.500000	66.070604
384.000000	65.903630
382.500000	65.726737
381.000000	65.446157
379.500000	65.141841
378.000000	65.132868
376.500000	65.480920
375.000000	65.618693
373.500000	64.637334
372.000000	63.743871
370.500000	62.635565
369.000000	61.570933
367.500000	60.388158
366.000000	58.756650
364.500000	56.922320
363.000000	54.995385
361.500000	52.399058
360.000000	49.469788
358.500000	46.175623
357.000000	42.400457
355.500000	37.913637
354.000000	33.166059
352.500000	28.151299
351.000000	22.973976
349.500000	17.938454
348.000000	13.277512
346.500000	9.184401
345.000000	5.851752
343.500000	3.367955
342.000000	1.718815
340.500000	0.758546
339.000000	0.286408
337.500000	0.094784
336.000000	0.038350
334.500000	0.034712
333.000000	0.025844
331.500000	0.030800
330.000000	0.024760
328.500000	0.041695
327.000000	0.034364
325.500000	0.024846
324.000000	0.030054
322.500000	0.033450
321.000000	0.032541
319.500000	0.035781
318.000000	0.000282
316.500000	-0.034242
315.000000	-0.033498
313.500000	-0.025259
312.000000	-0.032436
310.500000	-0.025679
309.000000	-0.024520
307.500000	-0.016644
306.000000	-0.012313
304.500000	-0.003033
303.000000	-0.018981
301.500000	-0.014910
300.000000	-0.017693
