PE UV       SUBTECH     SPECTRUM    ASCII       PEDS        4.00        
   -1
Sample4.Sample.Raw.asc
21/03/26
11:33:12.00
21/03/26
11:33:12.00
Administrator

300.000000
1
Lambda 850
850L1710193
PerkinElmer UV WinLab 6.4.0.973 / 2.02.06 Lambda 800 UV/VIS, Jan 28 2016 16:58:34

0
0
2
0
0
UV/VIS
1
1
1
RBeamAtt,SBeamAtt,60mm sphere
0
0
0
0
Fix
 
0
0.2
0
0
0
 
 
 
0
 
0
340
0
Front
100
 
S:100 R:100
 
0
0
0
 
0
 
 
 
0
 
 
0
0
0
0
0
 
 
 
 
0
0


0
0
#HDR
-1
-1
#GR
nm
%T
1.0
0.0
750.000000
-1.500000
301
8
74.941795
-0.038242
#DATA
750.000000	74.763200
748.500000	74.891735
747.000000	74.815887
745.500000	74.872770
744.000000	74.925502
742.500000	74.835213
741.000000	74.928262
739.500000	74.941795
738.000000	74.922737
736.500000	74.855683
735.000000	74.895729
733.500000	74.844374
732.000000	74.821645
730.500000	74.682048
729.000000	74.757780
727.500000	74.795378
726.000000	74.830980
724.500000	74.738717
723.000000	74.811223
721.500000	74.767984
720.000000	74.673094
718.500000	74.807879
717.000000	74.745309
715.500000	74.751690
714.000000	74.646020
712.500000	74.740387
711.000000	74.605948
709.500000	74.698032
708.000000	74.651719
706.500000	74.738837
705.000000	74.648871
703.500000	74.569124
702.000000	74.650816
700.500000	74.727035
699.000000	74.581346
697.500000	74.658920
696.000000	74.542211
694.500000	74.551685
693.000000	74.552340
691.500000	74.424304
690.000000	74.320743
688.500000	74.427928
687.000000	74.408093
685.500000	74.458087
684.000000	74.421029
682.500000	74.539211
681.000000	74.464617
679.500000	74.409520
678.000000	74.361004
676.500000	74.377907
675.000000	74.312799
673.500000	74.386344
672.000000	74.325583
670.500000	74.354248
669.000000	74.306727
667.500000	74.334698
666.000000	74.370086
664.500000	74.303524
663.000000	74.249672
661.500000	74.202975
660.000000	74.221962
658.500000	74.186507
657.000000	74.237223
655.500000	74.170504
654.000000	74.166151
652.500000	74.173224
651.000000	74.097463
649.500000	74.080949
648.000000	74.088550
646.500000	74.084721
645.000000	74.038797
643.500000	74.083467
642.000000	74.043292
640.500000	73.943443
639.000000	73.978195
637.500000	74.011033
636.000000	73.975362
634.500000	73.947912
633.000000	73.923338
631.500000	73.888318
630.000000	73.876379
628.500000	73.911560
627.000000	73.844726
625.500000	73.755131
624.000000	73.745893
622.500000	73.733251
621.000000	73.769448
619.500000	73.819365
618.000000	73.780070
616.500000	73.713554
615.000000	73.666091
613.500000	73.628882
612.000000	73.645285
610.500000	73.609946
609.000000	73.592540
607.500000	73.558786
606.000000	73.531212
604.500000	73.569009
603.000000	73.542952
601.500000	73.493280
600.000000	73.479281
598.500000	73.436693
597.000000	73.430060
595.500000	73.421051
594.000000	73.365851
592.500000	73.357805
591.000000	73.419596
589.500000	73.400250
588.000000	73.348007
586.500000	73.297343
585.000000	73.283444
583.500000	73.259149
582.000000	73.220247
580.500000	73.223640
579.000000	73.227789
577.500000	73.196765
576.000000	73.151038
574.500000	73.121753
573.000000	73.112092
571.500000	73.058891
570.000000	73.012344
568.500000	73.000828
567.000000	73.012103
565.500000	72.988887
564.000000	72.911239
562.500000	72.955862
561.000000	73.143281
559.500000	73.190242
558.000000	73.149011
556.500000	73.153059
555.000000	73.148472
553.500000	73.132747
552.000000	73.121101
550.500000	73.100553
549.000000	73.060578
547.500000	73.053202
546.000000	73.045769
544.500000	73.076425
543.000000	73.096616
541.500000	73.073874
540.000000	73.085246
538.500000	73.061016
537.000000	73.035716
535.500000	73.052648
534.000000	73.071622
532.500000	73.107177
531.000000	73.118492
529.500000	73.115302
528.000000	73.062996
526.500000	73.036244
525.000000	73.024743
523.500000	72.976065
522.000000	72.952076
520.500000	72.881904
519.000000	72.776474
517.500000	72.652408
516.000000	72.494209
514.500000	72.310511
513.000000	72.099810
511.500000	71.854212
510.000000	71.610169
508.500000	71.366063
507.000000	71.127677
505.500000	70.956502
504.000000	70.787123
502.500000	70.669214
501.000000	70.628617
499.500000	70.660178
498.000000	70.697948
496.500000	70.760455
495.000000	70.814877
493.500000	70.904053
492.000000	71.033147
490.500000	71.109176
489.000000	71.223627
487.500000	71.435762
486.000000	71.586486
484.500000	71.808594
483.000000	72.134522
481.500000	72.548636
480.000000	72.678267
478.500000	72.468143
477.000000	72.202500
475.500000	72.067077
474.000000	71.966642
472.500000	71.904222
471.000000	71.750868
469.500000	71.547974
468.000000	71.312688
466.500000	71.078732
465.000000	70.814576
463.500000	70.604616
462.000000	70.395516
460.500000	70.207447
459.000000	70.123422
457.500000	70.022522
456.000000	69.950309
454.500000	69.917452
453.000000	69.930978
451.500000	69.933843
450.000000	69.940846
448.500000	69.957676
447.000000	69.915216
445.500000	69.904228
444.000000	70.182511
442.500000	70.317015
441.000000	70.184144
439.500000	70.116245
438.000000	70.073892
436.500000	69.979641
435.000000	69.897714
433.500000	69.883278
432.000000	69.805998
430.500000	69.677689
429.000000	69.597329
427.500000	69.477237
426.000000	69.512874
424.500000	69.400243
423.000000	69.343042
421.500000	69.279018
420.000000	69.237634
418.500000	69.070887
417.000000	69.062624
415.500000	69.047445
414.000000	68.895629
412.500000	68.805477
411.000000	68.681195
409.500000	68.646704
408.000000	68.547703
406.500000	68.384551
405.000000	68.254758
403.500000	68.200694
402.000000	68.066508
400.500000	67.951195
399.000000	67.885481
397.500000	67.774811
396.000000	67.616700
394.500000	67.534025
393.000000	67.382728
391.500000	67.221677
390.000000	67.075421
388.500000	66.872588
387.000000	66.741379
385.500000	66.542614
384.000000	66.414786
382.500000	66.101806
381.000000	65.926094
379.500000	65.540397
378.000000	65.478747
376.500000	65.973219
375.000000	66.174084
373.500000	65.263660
372.000000	64.298968
370.500000	63.392680
369.000000	62.298459
367.500000	60.961274
366.000000	59.473005
364.500000	57.789039
363.000000	55.560439
361.500000	53.046970
360.000000	50.152980
358.500000	46.741405
357.000000	42.853446
355.500000	38.350501
354.000000	33.568371
352.500000	28.480298
351.000000	23.192636
349.500000	18.118761
348.000000	13.362131
346.500000	9.262849
345.000000	5.892148
343.500000	3.364388
342.000000	1.735667
340.500000	0.749321
339.000000	0.242722
337.500000	0.022563
336.000000	-0.032213
334.500000	-0.026654
333.000000	-0.027313
331.500000	-0.027456
330.000000	-0.028220
328.500000	-0.021067
327.000000	-0.022920
325.500000	-0.022674
324.000000	-0.015404
322.500000	-0.020182
321.000000	-0.020366
319.500000	-0.017125
318.000000	0.004045
316.500000	-0.029038
315.000000	-0.038242
313.500000	-0.036323
312.000000	-0.035395
310.500000	-0.035141
309.000000	-0.029792
307.500000	-0.029324
306.000000	-0.013268
304.500000	-0.013105
303.000000	-0.014434
301.500000	-0.019484
300.000000	-0.021414
