PE UV       SUBTECH     SPECTRUM    ASCII       PEDS        4.00        
   -1
Sample7.Sample.Raw.asc
21/03/26
11:45:56.00
21/03/26
11:45:56.00
Administrator

300.000000
1
Lambda 850
850L1710193
PerkinElmer UV WinLab 6.4.0.973 / 2.02.06 Lambda 800 UV/VIS, Jan 28 2016 16:58:34

0
0
2
0
0
UV/VIS
1
1
1
RBeamAtt,SBeamAtt,60mm sphere
0
0
0
0
Fix
 
0
0.2
0
0
0
 
 
 
0
 
0
340
0
Front
100
 
S:100 R:100
 
0
0
0
 
0
 
 
 
0
 
 
0
0
0
0
0
 
 
 
 
0
0


0
0
#HDR
-1
-1
#GR
nm
%T
1.0
0.0
750.000000
-1.500000
301
8
74.464262
-0.040517
#DATA
750.000000	74.031709
748.500000	74.244646
747.000000	74.269463
745.500000	74.177171
744.000000	74.247800
742.500000	74.340750
741.000000	74.397201
739.500000	74.285952
738.000000	74.464262
736.500000	74.260146
735.000000	74.237527
733.500000	74.403559
732.000000	74.224039
730.500000	74.281926
729.000000	74.170863
727.500000	74.273128
726.000000	74.364080
724.500000	74.145994
723.000000	74.188891
721.500000	74.181051
720.000000	74.109689
718.500000	74.212619
717.000000	74.203557
715.500000	74.140908
714.000000	74.175185
712.500000	74.190260
711.000000	74.199297
709.500000	74.178486
708.000000	74.003104
706.500000	74.234822
705.000000	74.142504
703.500000	74.060911
702.000000	74.104997
700.500000	74.111084
699.000000	74.047200
697.500000	74.022684
696.000000	74.061837
694.500000	74.042535
693.000000	74.005995
691.500000	73.944322
690.000000	73.785308
688.500000	73.963808
687.000000	73.938411
685.500000	73.923170
684.000000	73.978976
682.500000	73.996547
681.000000	73.983309
679.500000	73.956746
678.000000	73.873506
676.500000	73.845498
675.000000	73.837505
673.500000	73.847709
672.000000	73.825286
670.500000	73.864956
669.000000	73.835010
667.500000	73.834694
666.000000	73.838404
664.500000	73.783277
663.000000	73.753150
661.500000	73.720248
660.000000	73.793831
658.500000	73.770231
657.000000	73.817424
655.500000	73.705373
654.000000	73.706672
652.500000	73.665305
651.000000	73.733717
649.500000	73.657648
648.000000	73.658466
646.500000	73.708799
645.000000	73.642649
643.500000	73.611738
642.000000	73.627850
640.500000	73.593233
639.000000	73.534487
637.500000	73.581158
636.000000	73.569007
634.500000	73.543551
633.000000	73.513063
631.500000	73.502466
630.000000	73.514193
628.500000	73.485441
627.000000	73.481616
625.500000	73.423122
624.000000	73.437483
622.500000	73.397875
621.000000	73.402666
619.500000	73.436324
618.000000	73.379050
616.500000	73.384071
615.000000	73.337413
613.500000	73.272918
612.000000	73.306168
610.500000	73.255251
609.000000	73.255675
607.500000	73.213835
606.000000	73.173860
604.500000	73.228014
603.000000	73.250572
601.500000	73.193813
600.000000	73.150044
598.500000	73.139010
597.000000	73.113158
595.500000	73.128412
594.000000	73.079466
592.500000	73.010129
591.000000	73.039284
589.500000	73.022265
588.000000	72.963667
586.500000	72.975579
585.000000	72.991361
583.500000	72.960312
582.000000	72.922397
580.500000	72.897334
579.000000	72.850942
577.500000	72.804360
576.000000	72.821948
574.500000	72.787956
573.000000	72.769410
571.500000	72.732464
570.000000	72.666187
568.500000	72.647024
567.000000	72.638781
565.500000	72.592535
564.000000	72.540720
562.500000	72.544151
561.000000	72.706960
559.500000	72.823690
558.000000	72.792022
556.500000	72.772362
555.000000	72.738361
553.500000	72.701917
552.000000	72.675637
550.500000	72.660828
549.000000	72.656498
547.500000	72.627827
546.000000	72.574953
544.500000	72.558991
543.000000	72.572635
541.500000	72.560224
540.000000	72.547273
538.500000	72.522198
537.000000	72.492136
535.500000	72.485637
534.000000	72.503710
532.500000	72.508426
531.000000	72.469606
529.500000	72.467750
528.000000	72.417755
526.500000	72.362651
525.000000	72.323858
523.500000	72.266219
522.000000	72.221680
520.500000	72.146554
519.000000	72.063203
517.500000	71.937085
516.000000	71.760270
514.500000	71.567854
513.000000	71.353378
511.500000	71.118450
510.000000	70.874786
508.500000	70.639144
507.000000	70.428371
505.500000	70.268531
504.000000	70.179807
502.500000	70.078989
501.000000	70.088069
499.500000	70.162267
498.000000	70.251306
496.500000	70.344952
495.000000	70.454141
493.500000	70.580466
492.000000	70.720125
490.500000	70.870802
489.000000	70.997739
487.500000	71.156299
486.000000	71.271477
484.500000	71.465998
483.000000	71.765467
481.500000	72.095900
480.000000	72.135610
478.500000	71.844804
477.000000	71.555283
475.500000	71.407041
474.000000	71.276786
472.500000	71.145493
471.000000	70.955224
469.500000	70.731186
468.000000	70.498671
466.500000	70.251574
465.000000	69.975542
463.500000	69.766183
462.000000	69.602019
460.500000	69.461124
459.000000	69.378841
457.500000	69.357512
456.000000	69.317414
454.500000	69.281805
453.000000	69.329306
451.500000	69.360895
450.000000	69.401835
448.500000	69.440564
447.000000	69.401530
445.500000	69.493490
444.000000	69.735394
442.500000	69.886414
441.000000	69.733742
439.500000	69.700628
438.000000	69.671006
436.500000	69.515121
435.000000	69.468949
433.500000	69.446601
432.000000	69.422443
430.500000	69.282277
429.000000	69.161533
427.500000	69.073724
426.000000	69.061670
424.500000	68.964947
423.000000	68.972619
421.500000	68.901628
420.000000	68.788202
418.500000	68.729415
417.000000	68.643036
415.500000	68.594337
414.000000	68.526158
412.500000	68.447868
411.000000	68.332481
409.500000	68.280620
408.000000	68.192339
406.500000	68.011819
405.000000	67.872635
403.500000	67.756231
402.000000	67.741346
400.500000	67.691884
399.000000	67.606961
397.500000	67.420755
396.000000	67.294849
394.500000	67.172886
393.000000	67.058829
391.500000	66.841528
390.000000	66.773488
388.500000	66.473734
387.000000	66.380667
385.500000	66.099015
384.000000	65.966371
382.500000	65.751717
381.000000	65.340039
379.500000	64.992492
378.000000	64.724176
376.500000	65.107658
375.000000	65.161880
373.500000	63.926082
372.000000	62.694306
370.500000	61.599492
369.000000	60.061811
367.500000	58.283113
366.000000	56.033819
364.500000	53.645614
363.000000	50.624212
361.500000	47.232999
360.000000	43.338552
358.500000	38.817258
357.000000	33.881115
355.500000	28.531166
354.000000	23.119263
352.500000	17.888000
351.000000	13.020691
349.500000	8.968894
348.000000	5.789863
346.500000	3.502053
345.000000	1.981955
343.500000	1.052799
342.000000	0.501394
340.500000	0.231408
339.000000	0.051852
337.500000	-0.002414
336.000000	-0.024879
334.500000	-0.022660
333.000000	-0.035767
331.500000	-0.022430
330.000000	-0.037347
328.500000	-0.034864
327.000000	-0.031212
325.500000	-0.035551
324.000000	-0.040517
322.500000	-0.036627
321.000000	-0.039890
319.500000	-0.027512
318.000000	0.006209
316.500000	-0.017855
315.000000	-0.017571
313.500000	-0.023619
312.000000	-0.031724
310.500000	-0.018371
309.000000	-0.015179
307.500000	-0.011162
306.000000	-0.005023
304.500000	-0.002564
303.000000	0.003513
301.500000	-0.008554
300.000000	-0.008756
