PE UV       SUBTECH     SPECTRUM    ASCII       PEDS        4.00        
   -1
Sample98.Sample.Raw.asc
20/12/17
14:41:46.00
20/12/17
14:41:46.00
Administrator

300.000000
1
Lambda 850
850L1710193
PerkinElmer UV WinLab 6.4.0.973 / 2.02.06 Lambda 800 UV/VIS, Jan 28 2016 16:58:34

0
0
2
0
0
UV/VIS
1
1
1
RBeamAtt,SBeamAtt,60mm sphere
0
0
0
0
Fix
 
0
0.2
0
0
0
 
 
 
0
 
0
319.2
0
Front
100
 
S:100 R:100
 
0
0
0
 
0
 
 
 
0
 
 
0
0
0
0
0
 
 
 
 
0
0


0
0
#HDR
-1
-1
#GR
nm
%T
1.0
0.0
750.000000
-1.500000
301
8
74.553542
-0.031362
#DATA
750.000000	74.369113
748.500000	74.543646
747.000000	74.508044
745.500000	74.553542
744.000000	74.430512
742.500000	74.410437
741.000000	74.416301
739.500000	74.453814
738.000000	74.418710
736.500000	74.316841
735.000000	74.416424
733.500000	74.468328
732.000000	74.492430
730.500000	74.319096
729.000000	74.366191
727.500000	74.366693
726.000000	74.300212
724.500000	74.388107
723.000000	74.406394
721.500000	74.363562
720.000000	74.253521
718.500000	74.233586
717.000000	74.321170
715.500000	74.278999
714.000000	74.276872
712.500000	74.253328
711.000000	74.159318
709.500000	74.227686
708.000000	74.223419
706.500000	74.264338
705.000000	74.257645
703.500000	74.265442
702.000000	74.217272
700.500000	74.134681
699.000000	74.034970
697.500000	74.176374
696.000000	74.124521
694.500000	74.141669
693.000000	74.206945
691.500000	74.052796
690.000000	73.859718
688.500000	74.029217
687.000000	74.099393
685.500000	74.045134
684.000000	74.075618
682.500000	74.059773
681.000000	73.953944
679.500000	74.014858
678.000000	74.030494
676.500000	74.053542
675.000000	74.059127
673.500000	73.970528
672.000000	73.953834
670.500000	73.938541
669.000000	73.975041
667.500000	74.027350
666.000000	73.965348
664.500000	73.885859
663.000000	73.880280
661.500000	73.927423
660.000000	73.848959
658.500000	73.881862
657.000000	73.883511
655.500000	73.888444
654.000000	73.871037
652.500000	73.861716
651.000000	73.863366
649.500000	73.799151
648.000000	73.738457
646.500000	73.782689
645.000000	73.759975
643.500000	73.738255
642.000000	73.760165
640.500000	73.732583
639.000000	73.666645
637.500000	73.680879
636.000000	73.704216
634.500000	73.731256
633.000000	73.639155
631.500000	73.627070
630.000000	73.624747
628.500000	73.617905
627.000000	73.599144
625.500000	73.560435
624.000000	73.572771
622.500000	73.574043
621.000000	73.544499
619.500000	73.519702
618.000000	73.446880
616.500000	73.426407
615.000000	73.427076
613.500000	73.452394
612.000000	73.403330
610.500000	73.373294
609.000000	73.362649
607.500000	73.349080
606.000000	73.324138
604.500000	73.323966
603.000000	73.344964
601.500000	73.314622
600.000000	73.304787
598.500000	73.283877
597.000000	73.257340
595.500000	73.232137
594.000000	73.192880
592.500000	73.151773
591.000000	73.152678
589.500000	73.172348
588.000000	73.120385
586.500000	73.067380
585.000000	73.057161
583.500000	73.072273
582.000000	73.046524
580.500000	73.017881
579.000000	72.991448
577.500000	72.967934
576.000000	72.976741
574.500000	72.966896
573.000000	72.891813
571.500000	72.855492
570.000000	72.839270
568.500000	72.802827
567.000000	72.759906
565.500000	72.733563
564.000000	72.685360
562.500000	72.688780
561.000000	72.814702
559.500000	72.909192
558.000000	72.895747
556.500000	72.893657
555.000000	72.866555
553.500000	72.826146
552.000000	72.802088
550.500000	72.786910
549.000000	72.759848
547.500000	72.749800
546.000000	72.750556
544.500000	72.731086
543.000000	72.699705
541.500000	72.678494
540.000000	72.647345
538.500000	72.631950
537.000000	72.637885
535.500000	72.631744
534.000000	72.609879
532.500000	72.591135
531.000000	72.573732
529.500000	72.577557
528.000000	72.557129
526.500000	72.514121
525.000000	72.467876
523.500000	72.423417
522.000000	72.356681
520.500000	72.269434
519.000000	72.161375
517.500000	72.042336
516.000000	71.893472
514.500000	71.724207
513.000000	71.496387
511.500000	71.239010
510.000000	71.003285
508.500000	70.760480
507.000000	70.548342
505.500000	70.378338
504.000000	70.268019
502.500000	70.226715
501.000000	70.210941
499.500000	70.201776
498.000000	70.269285
496.500000	70.412670
495.000000	70.561094
493.500000	70.702216
492.000000	70.822928
490.500000	70.959296
489.000000	71.179492
487.500000	71.296430
486.000000	71.404841
484.500000	71.616392
483.000000	71.891619
481.500000	72.163361
480.000000	72.214122
478.500000	71.934135
477.000000	71.707611
475.500000	71.552597
474.000000	71.380534
472.500000	71.250375
471.000000	71.111256
469.500000	70.888873
468.000000	70.636371
466.500000	70.394125
465.000000	70.128514
463.500000	69.868044
462.000000	69.682798
460.500000	69.567920
459.000000	69.456037
457.500000	69.360117
456.000000	69.378485
454.500000	69.384897
453.000000	69.459612
451.500000	69.424247
450.000000	69.478913
448.500000	69.528055
447.000000	69.562129
445.500000	69.610354
444.000000	69.817318
442.500000	70.022495
441.000000	69.889385
439.500000	69.779870
438.000000	69.673650
436.500000	69.607980
435.000000	69.569634
433.500000	69.483583
432.000000	69.440368
430.500000	69.411003
429.000000	69.312303
427.500000	69.226330
426.000000	69.162521
424.500000	69.093235
423.000000	68.965974
421.500000	68.976482
420.000000	68.896352
418.500000	68.772527
417.000000	68.773964
415.500000	68.608413
414.000000	68.533136
412.500000	68.395089
411.000000	68.341487
409.500000	68.267016
408.000000	68.190731
406.500000	68.114052
405.000000	67.934432
403.500000	67.928598
402.000000	67.794300
400.500000	67.655429
399.000000	67.611377
397.500000	67.438932
396.000000	67.413447
394.500000	67.229566
393.000000	67.107672
391.500000	66.947194
390.000000	66.730805
388.500000	66.554474
387.000000	66.315956
385.500000	66.053546
384.000000	65.860484
382.500000	65.653627
381.000000	65.306980
379.500000	64.969713
378.000000	64.657955
376.500000	65.045837
375.000000	65.089141
373.500000	63.878191
372.000000	62.783152
370.500000	61.361466
369.000000	59.922245
367.500000	58.217477
366.000000	56.032375
364.500000	53.586302
363.000000	50.649285
361.500000	47.186946
360.000000	43.176154
358.500000	38.850984
357.000000	33.879446
355.500000	28.524234
354.000000	23.085030
352.500000	17.912993
351.000000	13.046514
349.500000	8.985266
348.000000	5.799959
346.500000	3.508709
345.000000	1.962017
343.500000	1.059694
342.000000	0.524362
340.500000	0.242661
339.000000	0.115471
337.500000	0.063035
336.000000	0.053449
334.500000	0.064241
333.000000	0.052892
331.500000	0.065868
330.000000	0.062873
328.500000	0.064074
327.000000	0.077829
325.500000	0.072770
324.000000	0.070901
322.500000	0.062055
321.000000	0.066108
319.500000	0.058796
318.000000	0.015880
316.500000	-0.022046
315.000000	-0.027587
313.500000	-0.031362
312.000000	-0.025384
310.500000	-0.022951
309.000000	-0.019144
307.500000	-0.016360
306.000000	-0.008145
304.500000	-0.008340
303.000000	-0.009301
301.500000	-0.012536
300.000000	-0.013603
