PE UV       SUBTECH     SPECTRUM    ASCII       PEDS        4.00        
   -1
Sample38.Sample.Raw.asc
21/02/09
14:29:44.00
21/02/09
14:29:44.00
Administrator

300.000000
1
Lambda 850
850L1710193
PerkinElmer UV WinLab 6.4.0.973 / 2.02.06 Lambda 800 UV/VIS, Jan 28 2016 16:58:34

0
0
2
0
0
UV/VIS
1
1
1
RBeamAtt,SBeamAtt,60mm sphere
0
0
0
0
Fix
 
0
0.2
0
0
0
 
 
 
0
 
0
340
0
Front
100
 
S:100 R:100
 
0
0
0
 
0
 
 
 
0
 
 
0
0
0
0
0
 
 
 
 
0
0


0
0
#HDR
-1
-1
#GR
nm
%T
1.0
0.0
750.000000
-1.500000
301
8
74.159544
-0.032891
#DATA
750.000000	73.768181
748.500000	74.137229
747.000000	74.159544
745.500000	73.974369
744.000000	73.989278
742.500000	73.899369
741.000000	74.060543
739.500000	74.011688
738.000000	73.995870
736.500000	74.082371
735.000000	73.907431
733.500000	74.046206
732.000000	74.044571
730.500000	73.866161
729.000000	74.014229
727.500000	73.926010
726.000000	73.905240
724.500000	73.872914
723.000000	73.795983
721.500000	73.900719
720.000000	73.914593
718.500000	73.991330
717.000000	73.781414
715.500000	73.684520
714.000000	73.785854
712.500000	73.719232
711.000000	73.699103
709.500000	73.702699
708.000000	73.700819
706.500000	73.722894
705.000000	73.747804
703.500000	73.829927
702.000000	73.790207
700.500000	73.788521
699.000000	73.589767
697.500000	73.669742
696.000000	73.646832
694.500000	73.577737
693.000000	73.664833
691.500000	73.740336
690.000000	73.541621
688.500000	73.642172
687.000000	73.608901
685.500000	73.619711
684.000000	73.604810
682.500000	73.621787
681.000000	73.600415
679.500000	73.510298
678.000000	73.546941
676.500000	73.554748
675.000000	73.526695
673.500000	73.491775
672.000000	73.463013
670.500000	73.457276
669.000000	73.477037
667.500000	73.458254
666.000000	73.421853
664.500000	73.476051
663.000000	73.495222
661.500000	73.386749
660.000000	73.341035
658.500000	73.403494
657.000000	73.364039
655.500000	73.354554
654.000000	73.356367
652.500000	73.374991
651.000000	73.315186
649.500000	73.300065
648.000000	73.345334
646.500000	73.281550
645.000000	73.236020
643.500000	73.263907
642.000000	73.235534
640.500000	73.219312
639.000000	73.210889
637.500000	73.207502
636.000000	73.231003
634.500000	73.183184
633.000000	73.130135
631.500000	73.057351
630.000000	73.063735
628.500000	73.085348
627.000000	73.018258
625.500000	73.042910
624.000000	73.046998
622.500000	73.031113
621.000000	72.989848
619.500000	72.976397
618.000000	72.937482
616.500000	72.921551
615.000000	72.917890
613.500000	72.938015
612.000000	72.923339
610.500000	72.861944
609.000000	72.875498
607.500000	72.871523
606.000000	72.854561
604.500000	72.851467
603.000000	72.801926
601.500000	72.770808
600.000000	72.759788
598.500000	72.742774
597.000000	72.690878
595.500000	72.685058
594.000000	72.700373
592.500000	72.674253
591.000000	72.577961
589.500000	72.558747
588.000000	72.535823
586.500000	72.492800
585.000000	72.527631
583.500000	72.571884
582.000000	72.532130
580.500000	72.473294
579.000000	72.439713
577.500000	72.402703
576.000000	72.397071
574.500000	72.390160
573.000000	72.350560
571.500000	72.352929
570.000000	72.319750
568.500000	72.234078
567.000000	72.185589
565.500000	72.170920
564.000000	72.136577
562.500000	72.071817
561.000000	72.184513
559.500000	72.283347
558.000000	72.258445
556.500000	72.254372
555.000000	72.258568
553.500000	72.255533
552.000000	72.246754
550.500000	72.230307
549.000000	72.179740
547.500000	72.156302
546.000000	72.170032
544.500000	72.169372
543.000000	72.135888
541.500000	72.097127
540.000000	72.088155
538.500000	72.048859
537.000000	72.038649
535.500000	72.030918
534.000000	71.998354
532.500000	72.006779
531.000000	71.992649
529.500000	71.943448
528.000000	71.881230
526.500000	71.858185
525.000000	71.823109
523.500000	71.778297
522.000000	71.701344
520.500000	71.616637
519.000000	71.551109
517.500000	71.426239
516.000000	71.253171
514.500000	71.048796
513.000000	70.847691
511.500000	70.617915
510.000000	70.373891
508.500000	70.150241
507.000000	69.937575
505.500000	69.742781
504.000000	69.647684
502.500000	69.566143
501.000000	69.541243
499.500000	69.582823
498.000000	69.655532
496.500000	69.751975
495.000000	69.885533
493.500000	70.067151
492.000000	70.217502
490.500000	70.332604
489.000000	70.393284
487.500000	70.532812
486.000000	70.684368
484.500000	70.828265
483.000000	71.167725
481.500000	71.468126
480.000000	71.486621
478.500000	71.207177
477.000000	70.914852
475.500000	70.777470
474.000000	70.638507
472.500000	70.506064
471.000000	70.328940
469.500000	70.134266
468.000000	69.875378
466.500000	69.638314
465.000000	69.366214
463.500000	69.127321
462.000000	68.888110
460.500000	68.774925
459.000000	68.695801
457.500000	68.661250
456.000000	68.639132
454.500000	68.638225
453.000000	68.595601
451.500000	68.645982
450.000000	68.642415
448.500000	68.758312
447.000000	68.717219
445.500000	68.740387
444.000000	69.016139
442.500000	69.148070
441.000000	69.041093
439.500000	68.915553
438.000000	68.819657
436.500000	68.751043
435.000000	68.700089
433.500000	68.636547
432.000000	68.604437
430.500000	68.496529
429.000000	68.371296
427.500000	68.330009
426.000000	68.316538
424.500000	68.201862
423.000000	68.167218
421.500000	68.052441
420.000000	67.949944
418.500000	67.875571
417.000000	67.912437
415.500000	67.757834
414.000000	67.633329
412.500000	67.621252
411.000000	67.548979
409.500000	67.348401
408.000000	67.200872
406.500000	67.192592
405.000000	67.112855
403.500000	67.033744
402.000000	66.868233
400.500000	66.710071
399.000000	66.632177
397.500000	66.416239
396.000000	66.411506
394.500000	66.305955
393.000000	66.138608
391.500000	66.030666
390.000000	65.769412
388.500000	65.615583
387.000000	65.441786
385.500000	65.080787
384.000000	64.806984
382.500000	64.609180
381.000000	64.362900
379.500000	64.029324
378.000000	63.636650
376.500000	64.066037
375.000000	64.038106
373.500000	63.064974
372.000000	62.020921
370.500000	60.710242
369.000000	59.420082
367.500000	57.725971
366.000000	55.686178
364.500000	53.484779
363.000000	50.792018
361.500000	47.538744
360.000000	43.766469
358.500000	39.585268
357.000000	34.785997
355.500000	29.623185
354.000000	24.276351
352.500000	19.062297
351.000000	14.136728
349.500000	9.897372
348.000000	6.550863
346.500000	4.035047
345.000000	2.336696
343.500000	1.252921
342.000000	0.626270
340.500000	0.289557
339.000000	0.086365
337.500000	-0.002980
336.000000	-0.007453
334.500000	-0.029455
333.000000	-0.014635
331.500000	-0.020256
330.000000	-0.016805
328.500000	-0.013849
327.000000	-0.009725
325.500000	-0.020038
324.000000	-0.017691
322.500000	-0.016006
321.000000	-0.025651
319.500000	-0.015395
318.000000	0.001321
316.500000	-0.020257
315.000000	-0.032891
313.500000	-0.020755
312.000000	-0.026732
310.500000	-0.023466
309.000000	-0.021202
307.500000	-0.012988
306.000000	-0.005606
304.500000	0.000952
303.000000	-0.004956
301.500000	-0.002004
300.000000	-0.009456
