PE UV       SUBTECH     SPECTRUM    ASCII       PEDS        4.00        
   -1
Sample50.Sample.Raw.asc
21/02/10
11:14:22.00
21/02/10
11:14:22.00
Administrator

300.000000
1
Lambda 850
850L1710193
PerkinElmer UV WinLab 6.4.0.973 / 2.02.06 Lambda 800 UV/VIS, Jan 28 2016 16:58:34

0
0
2
0
0
UV/VIS
1
1
1
RBeamAtt,SBeamAtt,60mm sphere
0
0
0
0
Fix
 
0
0.2
0
0
0
 
 
 
0
 
0
319.2
0
Front
100
 
S:100 R:100
 
0
0
0
 
0
 
 
 
0
 
 
0
0
0
0
0
 
 
 
 
0
0


0
0
#HDR
-1
-1
#GR
nm
%T
1.0
0.0
750.000000
-0.100000
4501
8
69.258006
-0.005300
#DATA
750.000000	69.100558
749.900000	69.129361
749.800000	69.204223
749.700000	69.179861
749.600000	69.097277
749.500000	69.164018
749.400000	69.092698
749.300000	68.875558
749.200000	69.166408
749.100000	69.124480
749.000000	69.069927
748.900000	69.225334
748.800000	69.209261
748.700000	69.102035
748.600000	69.241760
748.500000	69.137750
748.400000	69.067504
748.300000	69.070649
748.200000	69.029171
748.100000	69.023005
748.000000	69.225889
747.900000	69.258006
747.800000	69.060196
747.700000	69.071179
747.600000	69.048416
747.500000	69.045073
747.400000	69.039549
747.300000	69.029471
747.200000	69.225537
747.100000	69.023425
747.000000	68.922434
746.900000	69.003339
746.800000	69.008749
746.700000	69.015228
746.600000	69.071549
746.500000	69.044626
746.400000	68.978694
746.300000	69.068670
746.200000	69.026785
746.100000	68.918547
746.000000	69.015747
745.900000	69.042854
745.800000	68.912936
745.700000	69.024381
745.600000	68.967402
745.500000	69.078136
745.400000	69.128962
745.300000	68.953021
745.200000	69.002609
745.100000	68.990105
745.000000	68.943293
744.900000	68.931770
744.800000	68.995898
744.700000	68.963815
744.600000	69.004685
744.500000	69.037482
744.400000	69.020028
744.300000	69.022887
744.200000	68.958660
744.100000	68.939828
744.000000	69.015744
743.900000	69.036596
743.800000	69.018608
743.700000	69.027882
743.600000	69.054674
743.500000	68.987382
743.400000	68.898797
743.300000	68.952556
743.200000	68.970792
743.100000	68.903794
743.000000	68.853930
742.900000	68.842555
742.800000	69.002277
742.700000	69.036356
742.600000	69.056955
742.500000	68.945968
742.400000	68.861256
742.300000	68.985897
742.200000	68.891669
742.100000	68.854710
742.000000	68.856093
741.900000	68.903344
741.800000	68.920238
741.700000	68.985657
741.600000	68.972256
741.500000	68.850497
741.400000	68.833383
741.300000	68.892316
741.200000	68.906036
741.100000	68.956690
741.000000	68.938119
740.900000	68.937534
740.800000	68.869649
740.700000	68.759040
740.600000	68.851522
740.500000	68.912410
740.400000	68.843871
740.300000	68.890541
740.200000	68.904460
740.100000	68.829974
740.000000	68.895689
739.900000	68.881799
739.800000	68.857528
739.700000	68.910581
739.600000	68.821929
739.500000	68.867548
739.400000	69.005819
739.300000	68.865425
739.200000	68.806943
739.100000	68.812633
739.000000	68.767791
738.900000	68.856204
738.800000	68.780955
738.700000	68.736541
738.600000	68.845602
738.500000	68.888103
738.400000	68.869551
738.300000	68.903780
738.200000	68.888086
738.100000	68.829880
738.000000	68.777707
737.900000	68.781658
737.800000	68.832141
737.700000	68.793317
737.600000	68.830380
737.500000	68.932295
737.400000	68.913045
737.300000	68.785457
737.200000	68.742033
737.100000	68.778270
737.000000	68.870988
736.900000	68.895318
736.800000	68.751009
736.700000	68.715268
736.600000	68.792440
736.500000	68.794292
736.400000	68.778629
736.300000	68.764713
736.200000	68.798810
736.100000	68.838976
736.000000	68.764491
735.900000	68.645522
735.800000	68.647724
735.700000	68.735091
735.600000	68.769302
735.500000	68.797304
735.400000	68.831622
735.300000	68.866519
735.200000	68.801536
735.100000	68.762174
735.000000	68.850696
734.900000	68.873679
734.800000	68.788033
734.700000	68.695826
734.600000	68.670371
734.500000	68.656661
734.400000	68.667255
734.300000	68.805309
734.200000	68.834745
734.100000	68.764101
734.000000	68.682846
733.900000	68.693436
733.800000	68.679466
733.700000	68.643472
733.600000	68.684443
733.500000	68.722226
733.400000	68.744803
733.300000	68.741416
733.200000	68.706160
733.100000	68.743683
733.000000	68.705423
732.900000	68.623535
732.800000	68.691310
732.700000	68.649871
732.600000	68.640282
732.500000	68.652880
732.400000	68.657645
732.300000	68.659007
732.200000	68.677544
732.100000	68.607587
732.000000	68.656805
731.900000	68.672448
731.800000	68.681927
731.700000	68.755009
731.600000	68.671330
731.500000	68.629603
731.400000	68.618622
731.300000	68.596619
731.200000	68.660553
731.100000	68.676437
731.000000	68.691468
730.900000	68.744762
730.800000	68.676841
730.700000	68.727197
730.600000	68.680281
730.500000	68.673193
730.400000	68.598829
730.300000	68.615113
730.200000	68.617642
730.100000	68.640359
730.000000	68.642041
729.900000	68.593395
729.800000	68.681329
729.700000	68.682141
729.600000	68.662857
729.500000	68.576308
729.400000	68.639928
729.300000	68.587018
729.200000	68.571194
729.100000	68.566488
729.000000	68.566946
728.900000	68.565458
728.800000	68.533533
728.700000	68.691480
728.600000	68.504341
728.500000	68.512614
728.400000	68.623142
728.300000	68.585802
728.200000	68.657117
728.100000	68.611276
728.000000	68.540755
727.900000	68.593250
727.800000	68.548248
727.700000	68.465732
727.600000	68.432485
727.500000	68.581225
727.400000	68.480028
727.300000	68.588952
727.200000	68.633358
727.100000	68.510061
727.000000	68.471319
726.900000	68.557082
726.800000	68.579112
726.700000	68.596718
726.600000	68.574814
726.500000	68.523773
726.400000	68.639117
726.300000	68.570261
726.200000	68.579437
726.100000	68.503424
726.000000	68.586344
725.900000	68.524698
725.800000	68.473415
725.700000	68.522500
725.600000	68.613243
725.500000	68.602333
725.400000	68.583933
725.300000	68.574423
725.200000	68.572057
725.100000	68.590095
725.000000	68.601372
724.900000	68.511754
724.800000	68.563437
724.700000	68.478404
724.600000	68.567861
724.500000	68.419880
724.400000	68.465819
724.300000	68.552515
724.200000	68.459174
724.100000	68.553265
724.000000	68.444096
723.900000	68.498785
723.800000	68.504424
723.700000	68.526465
723.600000	68.533736
723.500000	68.531443
723.400000	68.386817
723.300000	68.384505
723.200000	68.516514
723.100000	68.476043
723.000000	68.528939
722.900000	68.530736
722.800000	68.522704
722.700000	68.544426
722.600000	68.450143
722.500000	68.469840
722.400000	68.533722
722.300000	68.457830
722.200000	68.477655
722.100000	68.403857
722.000000	68.451564
721.900000	68.358049
721.800000	68.388932
721.700000	68.394116
721.600000	68.431792
721.500000	68.464720
721.400000	68.442978
721.300000	68.465895
721.200000	68.418367
721.100000	68.409226
721.000000	68.469586
720.900000	68.531381
720.800000	68.463112
720.700000	68.471750
720.600000	68.432136
720.500000	68.471077
720.400000	68.491779
720.300000	68.403346
720.200000	68.304409
720.100000	68.448846
720.000000	68.382761
719.900000	68.355781
719.800000	68.367024
719.700000	68.307545
719.600000	68.383924
719.500000	68.411176
719.400000	68.503975
719.300000	68.429356
719.200000	68.467493
719.100000	68.493196
719.000000	68.445030
718.900000	68.465805
718.800000	68.472795
718.700000	68.461344
718.600000	68.346216
718.500000	68.342905
718.400000	68.275110
718.300000	68.354089
718.200000	68.392745
718.100000	68.365195
718.000000	68.337659
717.900000	68.436403
717.800000	68.387665
717.700000	68.285213
717.600000	68.254365
717.500000	68.325080
717.400000	68.259453
717.300000	68.309851
717.200000	68.323038
717.100000	68.221686
717.000000	68.233880
716.900000	68.337977
716.800000	68.383118
716.700000	68.423909
716.600000	68.336338
716.500000	68.355011
716.400000	68.309146
716.300000	68.322535
716.200000	68.347150
716.100000	68.365956
716.000000	68.358311
715.900000	68.354103
715.800000	68.415622
715.700000	68.437861
715.600000	68.380536
715.500000	68.421817
715.400000	68.407324
715.300000	68.392836
715.200000	68.338480
715.100000	68.327011
715.000000	68.292460
714.900000	68.295556
714.800000	68.292739
714.700000	68.340727
714.600000	68.383137
714.500000	68.336448
714.400000	68.293161
714.300000	68.270059
714.200000	68.286723
714.100000	68.362885
714.000000	68.318535
713.900000	68.344016
713.800000	68.340662
713.700000	68.281776
713.600000	68.241734
713.500000	68.289125
713.400000	68.331375
713.300000	68.292026
713.200000	68.268633
713.100000	68.214479
713.000000	68.270928
712.900000	68.335686
712.800000	68.250057
712.700000	68.200398
712.600000	68.238655
712.500000	68.280933
712.400000	68.339094
712.300000	68.329776
712.200000	68.333181
712.100000	68.369590
712.000000	68.362028
711.900000	68.325267
711.800000	68.289197
711.700000	68.311917
711.600000	68.274322
711.500000	68.249788
711.400000	68.269232
711.300000	68.261421
711.200000	68.343016
711.100000	68.339394
711.000000	68.213218
710.900000	68.220985
710.800000	68.247115
710.700000	68.238500
710.600000	68.264918
710.500000	68.291629
710.400000	68.343381
710.300000	68.316861
710.200000	68.303085
710.100000	68.236326
710.000000	68.178642
709.900000	68.227877
709.800000	68.352322
709.700000	68.340548
709.600000	68.224070
709.500000	68.236840
709.400000	68.307283
709.300000	68.334213
709.200000	68.380653
709.100000	68.293076
709.000000	68.199232
708.900000	68.208335
708.800000	68.235296
708.700000	68.182483
708.600000	68.224159
708.500000	68.226410
708.400000	68.255264
708.300000	68.216153
708.200000	68.214419
708.100000	68.181280
708.000000	68.166609
707.900000	68.209017
707.800000	68.264521
707.700000	68.290002
707.600000	68.251551
707.500000	68.246772
707.400000	68.223015
707.300000	68.238026
707.200000	68.211723
707.100000	68.230281
707.000000	68.152880
706.900000	68.099308
706.800000	68.156419
706.700000	68.165454
706.600000	68.087978
706.500000	68.169590
706.400000	68.104659
706.300000	68.104348
706.200000	68.110382
706.100000	68.077896
706.000000	68.116147
705.900000	68.176878
705.800000	68.183171
705.700000	68.230065
705.600000	68.211126
705.500000	68.149208
705.400000	68.103131
705.300000	68.074079
705.200000	68.057695
705.100000	68.088657
705.000000	68.111462
704.900000	68.211591
704.800000	68.178598
704.700000	68.210048
704.600000	68.110475
704.500000	68.166372
704.400000	68.116421
704.300000	68.135400
704.200000	68.111303
704.100000	68.107366
704.000000	68.101727
703.900000	68.090072
703.800000	68.053088
703.700000	68.189585
703.600000	68.185812
703.500000	68.173966
703.400000	68.140560
703.300000	68.114370
703.200000	68.085150
703.100000	68.115547
703.000000	68.129274
702.900000	68.141790
702.800000	68.135740
702.700000	68.220380
702.600000	68.134136
702.500000	68.066067
702.400000	68.045071
702.300000	68.101524
702.200000	68.098952
702.100000	68.100205
702.000000	68.030756
701.900000	67.994197
701.800000	68.072166
701.700000	68.058201
701.600000	68.056481
701.500000	68.087257
701.400000	68.169150
701.300000	68.119727
701.200000	68.087158
701.100000	68.048426
701.000000	68.103480
700.900000	68.092913
700.800000	68.012488
700.700000	68.021142
700.600000	68.016325
700.500000	68.014989
700.400000	68.119581
700.300000	68.074603
700.200000	67.928918
700.100000	68.084074
700.000000	68.050881
699.900000	68.020174
699.800000	67.996776
699.700000	68.100737
699.600000	68.160108
699.500000	67.978058
699.400000	68.005163
699.300000	68.095665
699.200000	67.990175
699.100000	68.063452
699.000000	68.031298
698.900000	68.039007
698.800000	68.002546
698.700000	68.014471
698.600000	68.099805
698.500000	67.954692
698.400000	68.038870
698.300000	67.995160
698.200000	67.936218
698.100000	68.036462
698.000000	67.935154
697.900000	68.026021
697.800000	67.994062
697.700000	68.016091
697.600000	68.061620
697.500000	67.930543
697.400000	67.989782
697.300000	68.015991
697.200000	67.999754
697.100000	68.000154
697.000000	67.952239
696.900000	67.957847
696.800000	68.036469
696.700000	67.943881
696.600000	67.984657
696.500000	68.042672
696.400000	67.937980
696.300000	68.031178
696.200000	67.919892
696.100000	68.050431
696.000000	67.902526
695.900000	67.904321
695.800000	67.900676
695.700000	67.947060
695.600000	67.969485
695.500000	67.945363
695.400000	67.845500
695.300000	67.925663
695.200000	67.935189
695.100000	67.865233
695.000000	67.883681
694.900000	67.957628
694.800000	67.970806
694.700000	67.919075
694.600000	67.961587
694.500000	67.990982
694.400000	67.911372
694.300000	67.889445
694.200000	67.933502
694.100000	67.865387
694.000000	67.840733
693.900000	67.887630
693.800000	67.840177
693.700000	67.849092
693.600000	67.939517
693.500000	67.941614
693.400000	67.871572
693.300000	67.870799
693.200000	67.999413
693.100000	67.881014
693.000000	67.942616
692.900000	67.898245
692.800000	67.915290
692.700000	67.901102
692.600000	67.946759
692.500000	67.952720
692.400000	67.908404
692.300000	67.875468
692.200000	67.951674
692.100000	67.932598
692.000000	67.929782
691.900000	67.879563
691.800000	67.878463
691.700000	67.865544
691.600000	67.853426
691.500000	67.803449
691.400000	67.825536
691.300000	67.837771
691.200000	67.877380
691.100000	67.828821
691.000000	67.794971
690.900000	67.846070
690.800000	67.898895
690.700000	67.849230
690.600000	67.795958
690.500000	67.748334
690.400000	67.776707
690.300000	67.836858
690.200000	67.877214
690.100000	67.817156
690.000000	67.786936
689.900000	67.782246
689.800000	67.831565
689.700000	67.866573
689.600000	67.783891
689.500000	67.804332
689.400000	67.813376
689.300000	67.746463
689.200000	67.725471
689.100000	67.792608
689.000000	67.811799
688.900000	67.804241
688.800000	67.822112
688.700000	67.727625
688.600000	67.755035
688.500000	67.740163
688.400000	67.715343
688.300000	67.716778
688.200000	67.724248
688.100000	67.701870
688.000000	67.715967
687.900000	67.792982
687.800000	67.809364
687.700000	67.780230
687.600000	67.793752
687.500000	67.788174
687.400000	67.769272
687.300000	67.727043
687.200000	67.701520
687.100000	67.677988
687.000000	67.654113
686.900000	67.713223
686.800000	67.720227
686.700000	67.713299
686.600000	67.713407
686.500000	67.762199
686.400000	67.777826
686.300000	67.747514
686.200000	67.709769
686.100000	67.694647
686.000000	67.693723
685.900000	67.710785
685.800000	67.753509
685.700000	67.716187
685.600000	67.686325
685.500000	67.647667
685.400000	67.659158
685.300000	67.670742
685.200000	67.650159
685.100000	67.646682
685.000000	67.605486
684.900000	67.604392
684.800000	67.640645
684.700000	67.655728
684.600000	67.679755
684.500000	67.620817
684.400000	67.581807
684.300000	67.639684
684.200000	67.637571
684.100000	67.665751
684.000000	67.653976
683.900000	67.591364
683.800000	67.624304
683.700000	67.650008
683.600000	67.677243
683.500000	67.631808
683.400000	67.599111
683.300000	67.583868
683.200000	67.530381
683.100000	67.548503
683.000000	67.558453
682.900000	67.583062
682.800000	67.545182
682.700000	67.569536
682.600000	67.635403
682.500000	67.605936
682.400000	67.547345
682.300000	67.519132
682.200000	67.518951
682.100000	67.605686
682.000000	67.602754
681.900000	67.593747
681.800000	67.550946
681.700000	67.516681
681.600000	67.441761
681.500000	67.506971
681.400000	67.515714
681.300000	67.490333
681.200000	67.510529
681.100000	67.511954
681.000000	67.514033
680.900000	67.533218
680.800000	67.587376
680.700000	67.581812
680.600000	67.463363
680.500000	67.442036
680.400000	67.501183
680.300000	67.503818
680.200000	67.489826
680.100000	67.481716
680.000000	67.423666
679.900000	67.509008
679.800000	67.514055
679.700000	67.481502
679.600000	67.459215
679.500000	67.461103
679.400000	67.471241
679.300000	67.430567
679.200000	67.455216
679.100000	67.381793
679.000000	67.415932
678.900000	67.475954
678.800000	67.465107
678.700000	67.404269
678.600000	67.409748
678.500000	67.443151
678.400000	67.429282
678.300000	67.340942
678.200000	67.341300
678.100000	67.360225
678.000000	67.371461
677.900000	67.357111
677.800000	67.309445
677.700000	67.419134
677.600000	67.390615
677.500000	67.419744
677.400000	67.375474
677.300000	67.347135
677.200000	67.324340
677.100000	67.348136
677.000000	67.328220
676.900000	67.311577
676.800000	67.376124
676.700000	67.329176
676.600000	67.357947
676.500000	67.340165
676.400000	67.257103
676.300000	67.302159
676.200000	67.354652
676.100000	67.318104
676.000000	67.303968
675.900000	67.332121
675.800000	67.304855
675.700000	67.319903
675.600000	67.320573
675.500000	67.333097
675.400000	67.309347
675.300000	67.213237
675.200000	67.388049
675.100000	67.321560
675.000000	67.238831
674.900000	67.168030
674.800000	67.194666
674.700000	67.191643
674.600000	67.273344
674.500000	67.265475
674.400000	67.239132
674.300000	67.187269
674.200000	67.178741
674.100000	67.212586
674.000000	67.208912
673.900000	67.155101
673.800000	67.218642
673.700000	67.170162
673.600000	67.123699
673.500000	67.193865
673.400000	67.140083
673.300000	67.135717
673.200000	67.213457
673.100000	67.200273
673.000000	67.138184
672.900000	67.160181
672.800000	67.210511
672.700000	67.136050
672.600000	67.194099
672.500000	67.077166
672.400000	67.108144
672.300000	67.136202
672.200000	67.105726
672.100000	67.148030
672.000000	67.088940
671.900000	67.101690
671.800000	67.178725
671.700000	67.144951
671.600000	67.225857
671.500000	67.045580
671.400000	67.019367
671.300000	67.018742
671.200000	67.101046
671.100000	67.107379
671.000000	66.970368
670.900000	67.065239
670.800000	67.132664
670.700000	67.011270
670.600000	67.025954
670.500000	66.970165
670.400000	66.911557
670.300000	66.976804
670.200000	66.969576
670.100000	67.027441
670.000000	66.934908
669.900000	66.964779
669.800000	66.999965
669.700000	67.016467
669.600000	66.978312
669.500000	66.941225
669.400000	66.923253
669.300000	66.966773
669.200000	67.000638
669.100000	67.003880
669.000000	66.967557
668.900000	66.901439
668.800000	66.940053
668.700000	66.908818
668.600000	66.901006
668.500000	66.950054
668.400000	66.914453
668.300000	66.915101
668.200000	66.901706
668.100000	66.909866
668.000000	66.862830
667.900000	66.767498
667.800000	66.857699
667.700000	66.865188
667.600000	66.779445
667.500000	66.795237
667.400000	66.719869
667.300000	66.775446
667.200000	66.840650
667.100000	66.854724
667.000000	66.857898
666.900000	66.771005
666.800000	66.798510
666.700000	66.827492
666.600000	66.842758
666.500000	66.761602
666.400000	66.733946
666.300000	66.733894
666.200000	66.738355
666.100000	66.784695
666.000000	66.783029
665.900000	66.741302
665.800000	66.756777
665.700000	66.743595
665.600000	66.738951
665.500000	66.768723
665.400000	66.639987
665.300000	66.659837
665.200000	66.702176
665.100000	66.680602
665.000000	66.756093
664.900000	66.717992
664.800000	66.668479
664.700000	66.727247
664.600000	66.714201
664.500000	66.696615
664.400000	66.684120
664.300000	66.689573
664.200000	66.702681
664.100000	66.683582
664.000000	66.647562
663.900000	66.623812
663.800000	66.675562
663.700000	66.640727
663.600000	66.542128
663.500000	66.550460
663.400000	66.617283
663.300000	66.617344
663.200000	66.624350
663.100000	66.604635
663.000000	66.569057
662.900000	66.549778
662.800000	66.543466
662.700000	66.532311
662.600000	66.480964
662.500000	66.526237
662.400000	66.562696
662.300000	66.556165
662.200000	66.524997
662.100000	66.489280
662.000000	66.492320
661.900000	66.483260
661.800000	66.446107
661.700000	66.450374
661.600000	66.483829
661.500000	66.449778
661.400000	66.477554
661.300000	66.549559
661.200000	66.478728
661.100000	66.426973
661.000000	66.418878
660.900000	66.362630
660.800000	66.337517
660.700000	66.397267
660.600000	66.414769
660.500000	66.383795
660.400000	66.393343
660.300000	66.383836
660.200000	66.378495
660.100000	66.327609
660.000000	66.259866
659.900000	66.293192
659.800000	66.323337
659.700000	66.294299
659.600000	66.300532
659.500000	66.314052
659.400000	66.329269
659.300000	66.365982
659.200000	66.340501
659.100000	66.332308
659.000000	66.325297
658.900000	66.296985
658.800000	66.291973
658.700000	66.290337
658.600000	66.280447
658.500000	66.269231
658.400000	66.255630
658.300000	66.236080
658.200000	66.191080
658.100000	66.228276
658.000000	66.260226
657.900000	66.224390
657.800000	66.227396
657.700000	66.235581
657.600000	66.276296
657.500000	66.272914
657.400000	66.221447
657.300000	66.245054
657.200000	66.230961
657.100000	66.200470
657.000000	66.156846
656.900000	66.114321
656.800000	66.069356
656.700000	66.106650
656.600000	66.084793
656.500000	66.056503
656.400000	66.087904
656.300000	66.106057
656.200000	66.067280
656.100000	66.074629
656.000000	66.090838
655.900000	66.009934
655.800000	66.046534
655.700000	66.083043
655.600000	66.078025
655.500000	66.076005
655.400000	66.051029
655.300000	65.988462
655.200000	65.986693
655.100000	65.982584
655.000000	65.988839
654.900000	65.952431
654.800000	65.956940
654.700000	66.025774
654.600000	66.014940
654.500000	66.009721
654.400000	66.020742
654.300000	65.984852
654.200000	65.963484
654.100000	66.002248
654.000000	65.971155
653.900000	65.959759
653.800000	65.915183
653.700000	65.885530
653.600000	65.895825
653.500000	65.843872
653.400000	65.825782
653.300000	65.876737
653.200000	65.868400
653.100000	65.833519
653.000000	65.868408
652.900000	65.834360
652.800000	65.760171
652.700000	65.816124
652.600000	65.849100
652.500000	65.820810
652.400000	65.837801
652.300000	65.750129
652.200000	65.777852
652.100000	65.753849
652.000000	65.801974
651.900000	65.764223
651.800000	65.785843
651.700000	65.753850
651.600000	65.734789
651.500000	65.660868
651.400000	65.688245
651.300000	65.684568
651.200000	65.623060
651.100000	65.625685
651.000000	65.641530
650.900000	65.682240
650.800000	65.601497
650.700000	65.609714
650.600000	65.691538
650.500000	65.655379
650.400000	65.637982
650.300000	65.568846
650.200000	65.570829
650.100000	65.529057
650.000000	65.572186
649.900000	65.574921
649.800000	65.498303
649.700000	65.559562
649.600000	65.537882
649.500000	65.528022
649.400000	65.553041
649.300000	65.535630
649.200000	65.527906
649.100000	65.495404
649.000000	65.506317
648.900000	65.488325
648.800000	65.524155
648.700000	65.464741
648.600000	65.525542
648.500000	65.422231
648.400000	65.464755
648.300000	65.458122
648.200000	65.469706
648.100000	65.432643
648.000000	65.365099
647.900000	65.394661
647.800000	65.402878
647.700000	65.419271
647.600000	65.372944
647.500000	65.330152
647.400000	65.356700
647.300000	65.303437
647.200000	65.250093
647.100000	65.345663
647.000000	65.316258
646.900000	65.323354
646.800000	65.283621
646.700000	65.289927
646.600000	65.310203
646.500000	65.225270
646.400000	65.333207
646.300000	65.206508
646.200000	65.223889
646.100000	65.233865
646.000000	65.229202
645.900000	65.250750
645.800000	65.294098
645.700000	65.300342
645.600000	65.137599
645.500000	65.259882
645.400000	65.268059
645.300000	65.180961
645.200000	65.191189
645.100000	65.195161
645.000000	65.117960
644.900000	65.223500
644.800000	65.155587
644.700000	65.145059
644.600000	65.052438
644.500000	65.083809
644.400000	65.086973
644.300000	65.090747
644.200000	65.052970
644.100000	65.085182
644.000000	65.061399
643.900000	65.067015
643.800000	65.084671
643.700000	65.024700
643.600000	64.964704
643.500000	64.980436
643.400000	65.015816
643.300000	65.016439
643.200000	64.996161
643.100000	64.980512
643.000000	64.886107
642.900000	64.895859
642.800000	64.903650
642.700000	64.935865
642.600000	64.936108
642.500000	64.899488
642.400000	64.949833
642.300000	64.900991
642.200000	64.899907
642.100000	64.909411
642.000000	64.866910
641.900000	64.884987
641.800000	64.798701
641.700000	64.797681
641.600000	64.836713
641.500000	64.851788
641.400000	64.790605
641.300000	64.815182
641.200000	64.814754
641.100000	64.781390
641.000000	64.787005
640.900000	64.825801
640.800000	64.800459
640.700000	64.770790
640.600000	64.712862
640.500000	64.744361
640.400000	64.727364
640.300000	64.752606
640.200000	64.676923
640.100000	64.688635
640.000000	64.687393
639.900000	64.686475
639.800000	64.607480
639.700000	64.608315
639.600000	64.577973
639.500000	64.618213
639.400000	64.575033
639.300000	64.518000
639.200000	64.572792
639.100000	64.515882
639.000000	64.566656
638.900000	64.536008
638.800000	64.518363
638.700000	64.549534
638.600000	64.571970
638.500000	64.545091
638.400000	64.535740
638.300000	64.494316
638.200000	64.564117
638.100000	64.562512
638.000000	64.492179
637.900000	64.400748
637.800000	64.426459
637.700000	64.508070
637.600000	64.479698
637.500000	64.436000
637.400000	64.468226
637.300000	64.441860
637.200000	64.400429
637.100000	64.418548
637.000000	64.392270
636.900000	64.328245
636.800000	64.327423
636.700000	64.341586
636.600000	64.317637
636.500000	64.371475
636.400000	64.324576
636.300000	64.289635
636.200000	64.275603
636.100000	64.302604
636.000000	64.267972
635.900000	64.240327
635.800000	64.281585
635.700000	64.284074
635.600000	64.274136
635.500000	64.270252
635.400000	64.254598
635.300000	64.219398
635.200000	64.195972
635.100000	64.191017
635.000000	64.175235
634.900000	64.160969
634.800000	64.144127
634.700000	64.155979
634.600000	64.139078
634.500000	64.103271
634.400000	64.072360
634.300000	64.042805
634.200000	64.029082
634.100000	64.021966
634.000000	64.062394
633.900000	64.065630
633.800000	64.086267
633.700000	64.095257
633.600000	64.058957
633.500000	64.020289
633.400000	63.996670
633.300000	63.990618
633.200000	63.986552
633.100000	63.940117
633.000000	63.929983
632.900000	63.950187
632.800000	63.946353
632.700000	63.976207
632.600000	63.944216
632.500000	63.919122
632.400000	63.962010
632.300000	63.902581
632.200000	63.843441
632.100000	63.894518
632.000000	63.946223
631.900000	63.931028
631.800000	63.874351
631.700000	63.834488
631.600000	63.799584
631.500000	63.807740
631.400000	63.836996
631.300000	63.824809
631.200000	63.789799
631.100000	63.807644
631.000000	63.793484
630.900000	63.749095
630.800000	63.716368
630.700000	63.713968
630.600000	63.707569
630.500000	63.678303
630.400000	63.681080
630.300000	63.688010
630.200000	63.671788
630.100000	63.674601
630.000000	63.652471
629.900000	63.626106
629.800000	63.588817
629.700000	63.575147
629.600000	63.593728
629.500000	63.621937
629.400000	63.587803
629.300000	63.580333
629.200000	63.533826
629.100000	63.532380
629.000000	63.546754
628.900000	63.554503
628.800000	63.559157
628.700000	63.508857
628.600000	63.500458
628.500000	63.493509
628.400000	63.444365
628.300000	63.462516
628.200000	63.453830
628.100000	63.511980
628.000000	63.506394
627.900000	63.435589
627.800000	63.413806
627.700000	63.441184
627.600000	63.409691
627.500000	63.387751
627.400000	63.368437
627.300000	63.369532
627.200000	63.370210
627.100000	63.350318
627.000000	63.343138
626.900000	63.351928
626.800000	63.354552
626.700000	63.333083
626.600000	63.338815
626.500000	63.269008
626.400000	63.260431
626.300000	63.299386
626.200000	63.252865
626.100000	63.192555
626.000000	63.223754
625.900000	63.180231
625.800000	63.207546
625.700000	63.163209
625.600000	63.139818
625.500000	63.208289
625.400000	63.240913
625.300000	63.178142
625.200000	63.203147
625.100000	63.155593
625.000000	63.087683
624.900000	63.111473
624.800000	63.138386
624.700000	63.104244
624.600000	63.131902
624.500000	63.072468
624.400000	63.050238
624.300000	63.080587
624.200000	63.027363
624.100000	63.045718
624.000000	63.005318
623.900000	62.993977
623.800000	62.941314
623.700000	62.996359
623.600000	63.027575
623.500000	62.921424
623.400000	62.934501
623.300000	62.891217
623.200000	62.863259
623.100000	62.877099
623.000000	62.915965
622.900000	62.846275
622.800000	62.848932
622.700000	62.902799
622.600000	62.809627
622.500000	62.867843
622.400000	62.776118
622.300000	62.796646
622.200000	62.755452
622.100000	62.802998
622.000000	62.747724
621.900000	62.731906
621.800000	62.827255
621.700000	62.737834
621.600000	62.685147
621.500000	62.772358
621.400000	62.712579
621.300000	62.674014
621.200000	62.630428
621.100000	62.663286
621.000000	62.636243
620.900000	62.634879
620.800000	62.601627
620.700000	62.697041
620.600000	62.589616
620.500000	62.552833
620.400000	62.619899
620.300000	62.532829
620.200000	62.545370
620.100000	62.557673
620.000000	62.587960
619.900000	62.594481
619.800000	62.566152
619.700000	62.570386
619.600000	62.489385
619.500000	62.509167
619.400000	62.419811
619.300000	62.474464
619.200000	62.430375
619.100000	62.466172
619.000000	62.437423
618.900000	62.481022
618.800000	62.400907
618.700000	62.403925
618.600000	62.393886
618.500000	62.364619
618.400000	62.375867
618.300000	62.361286
618.200000	62.343024
618.100000	62.358747
618.000000	62.306236
617.900000	62.287315
617.800000	62.352150
617.700000	62.285044
617.600000	62.270543
617.500000	62.235811
617.400000	62.252111
617.300000	62.307862
617.200000	62.269805
617.100000	62.251046
617.000000	62.257141
616.900000	62.218343
616.800000	62.188289
616.700000	62.181279
616.600000	62.158311
616.500000	62.177982
616.400000	62.169677
616.300000	62.123149
616.200000	62.103088
616.100000	62.137368
616.000000	62.124743
615.900000	62.126156
615.800000	62.099930
615.700000	62.118641
615.600000	62.063446
615.500000	62.061266
615.400000	62.081206
615.300000	62.029214
615.200000	62.028690
615.100000	61.987185
615.000000	62.015357
614.900000	61.968544
614.800000	61.980520
614.700000	61.946376
614.600000	61.964353
614.500000	61.919463
614.400000	61.928068
614.300000	61.926587
614.200000	61.888738
614.100000	61.805139
614.000000	61.806208
613.900000	61.790258
613.800000	61.855456
613.700000	61.842739
613.600000	61.845780
613.500000	61.854723
613.400000	61.833620
613.300000	61.740591
613.200000	61.732562
613.100000	61.806481
613.000000	61.783803
612.900000	61.764336
612.800000	61.757567
612.700000	61.728827
612.600000	61.748970
612.500000	61.705740
612.400000	61.639302
612.300000	61.645585
612.200000	61.646206
612.100000	61.639135
612.000000	61.604534
611.900000	61.589812
611.800000	61.588968
611.700000	61.569874
611.600000	61.581021
611.500000	61.576395
611.400000	61.571137
611.300000	61.578732
611.200000	61.556447
611.100000	61.534291
611.000000	61.494058
610.900000	61.486632
610.800000	61.480956
610.700000	61.459610
610.600000	61.460765
610.500000	61.487130
610.400000	61.499310
610.300000	61.442139
610.200000	61.423716
610.100000	61.390753
610.000000	61.401318
609.900000	61.404408
609.800000	61.415292
609.700000	61.390911
609.600000	61.338099
609.500000	61.335912
609.400000	61.308536
609.300000	61.270126
609.200000	61.251882
609.100000	61.269563
609.000000	61.261880
608.900000	61.247942
608.800000	61.264209
608.700000	61.222646
608.600000	61.199968
608.500000	61.235022
608.400000	61.233077
608.300000	61.212697
608.200000	61.191192
608.100000	61.157119
608.000000	61.160169
607.900000	61.162002
607.800000	61.147072
607.700000	61.139001
607.600000	61.112587
607.500000	61.080331
607.400000	61.075827
607.300000	61.062557
607.200000	61.043728
607.100000	61.030357
607.000000	61.013793
606.900000	61.016185
606.800000	61.048464
606.700000	61.028557
606.600000	61.000133
606.500000	60.998258
606.400000	60.992224
606.300000	60.970232
606.200000	60.967700
606.100000	60.966063
606.000000	60.926353
605.900000	60.907560
605.800000	60.887894
605.700000	60.828085
605.600000	60.823421
605.500000	60.819081
605.400000	60.836587
605.300000	60.812438
605.200000	60.760589
605.100000	60.805832
605.000000	60.824450
604.900000	60.772831
604.800000	60.767522
604.700000	60.723876
604.600000	60.717780
604.500000	60.772418
604.400000	60.747042
604.300000	60.724524
604.200000	60.722667
604.100000	60.682319
604.000000	60.682088
603.900000	60.698260
603.800000	60.654293
603.700000	60.611219
603.600000	60.575122
603.500000	60.618006
603.400000	60.603615
603.300000	60.604590
603.200000	60.583852
603.100000	60.587310
603.000000	60.551660
602.900000	60.544200
602.800000	60.542101
602.700000	60.511586
602.600000	60.529294
602.500000	60.488231
602.400000	60.454287
602.300000	60.432726
602.200000	60.459821
602.100000	60.469734
602.000000	60.394147
601.900000	60.372962
601.800000	60.431157
601.700000	60.385286
601.600000	60.351548
601.500000	60.361558
601.400000	60.370266
601.300000	60.329210
601.200000	60.309778
601.100000	60.299134
601.000000	60.305314
600.900000	60.285481
600.800000	60.247723
600.700000	60.278166
600.600000	60.294919
600.500000	60.223930
600.400000	60.249460
600.300000	60.245499
600.200000	60.226467
600.100000	60.195178
600.000000	60.175191
599.900000	60.184584
599.800000	60.132750
599.700000	60.163526
599.600000	60.155894
599.500000	60.106920
599.400000	60.128205
599.300000	60.129378
599.200000	60.095583
599.100000	60.039610
599.000000	60.082829
598.900000	60.035769
598.800000	60.040886
598.700000	60.053175
598.600000	60.026227
598.500000	59.977555
598.400000	59.976295
598.300000	60.025606
598.200000	59.951312
598.100000	59.938892
598.000000	59.974064
597.900000	59.925410
597.800000	59.950104
597.700000	59.890343
597.600000	59.857996
597.500000	59.876561
597.400000	59.912234
597.300000	59.850742
597.200000	59.850093
597.100000	59.885476
597.000000	59.811636
596.900000	59.852705
596.800000	59.806047
596.700000	59.809957
596.600000	59.808029
596.500000	59.775144
596.400000	59.761705
596.300000	59.763525
596.200000	59.763789
596.100000	59.743977
596.000000	59.738142
595.900000	59.694283
595.800000	59.649544
595.700000	59.647842
595.600000	59.649952
595.500000	59.682679
595.400000	59.661078
595.300000	59.652884
595.200000	59.656793
595.100000	59.615801
595.000000	59.538086
594.900000	59.557184
594.800000	59.580303
594.700000	59.525246
594.600000	59.513355
594.500000	59.539823
594.400000	59.494165
594.300000	59.476262
594.200000	59.480318
594.100000	59.425499
594.000000	59.474599
593.900000	59.483299
593.800000	59.455215
593.700000	59.398143
593.600000	59.425227
593.500000	59.405280
593.400000	59.397513
593.300000	59.421536
593.200000	59.403413
593.100000	59.294631
593.000000	59.385559
592.900000	59.327707
592.800000	59.336270
592.700000	59.333031
592.600000	59.328098
592.500000	59.278305
592.400000	59.304703
592.300000	59.256040
592.200000	59.249023
592.100000	59.285368
592.000000	59.265589
591.900000	59.205857
591.800000	59.196150
591.700000	59.197187
591.600000	59.188590
591.500000	59.168150
591.400000	59.155007
591.300000	59.126787
591.200000	59.134318
591.100000	59.127316
591.000000	59.105776
590.900000	59.085952
590.800000	59.094634
590.700000	59.046635
590.600000	59.048454
590.500000	59.016441
590.400000	59.051859
590.300000	59.026133
590.200000	59.033457
590.100000	58.986435
590.000000	58.985271
589.900000	59.000009
589.800000	59.002570
589.700000	58.959438
589.600000	58.907220
589.500000	58.915336
589.400000	58.918483
589.300000	58.920884
589.200000	58.885421
589.100000	58.857534
589.000000	58.824191
588.900000	58.805907
588.800000	58.865496
588.700000	58.820267
588.600000	58.844160
588.500000	58.805367
588.400000	58.781280
588.300000	58.809548
588.200000	58.771925
588.100000	58.744020
588.000000	58.709924
587.900000	58.752787
587.800000	58.745955
587.700000	58.720285
587.600000	58.686680
587.500000	58.688882
587.400000	58.669825
587.300000	58.674957
587.200000	58.677044
587.100000	58.595616
587.000000	58.646689
586.900000	58.622426
586.800000	58.558331
586.700000	58.539792
586.600000	58.567108
586.500000	58.623572
586.400000	58.583134
586.300000	58.568237
586.200000	58.585766
586.100000	58.553926
586.000000	58.480465
585.900000	58.448873
585.800000	58.440843
585.700000	58.451433
585.600000	58.427436
585.500000	58.425061
585.400000	58.421864
585.300000	58.415059
585.200000	58.379718
585.100000	58.380624
585.000000	58.359960
584.900000	58.331533
584.800000	58.387504
584.700000	58.374389
584.600000	58.345825
584.500000	58.336591
584.400000	58.320827
584.300000	58.291701
584.200000	58.284577
584.100000	58.287833
584.000000	58.267900
583.900000	58.228486
583.800000	58.227238
583.700000	58.263591
583.600000	58.278322
583.500000	58.210496
583.400000	58.166382
583.300000	58.172049
583.200000	58.177245
583.100000	58.163935
583.000000	58.146486
582.900000	58.128305
582.800000	58.116529
582.700000	58.121225
582.600000	58.117203
582.500000	58.087800
582.400000	58.062943
582.300000	58.075283
582.200000	58.073007
582.100000	58.028683
582.000000	58.027387
581.900000	58.067498
581.800000	58.032646
581.700000	57.986290
581.600000	57.999296
581.500000	58.003615
581.400000	57.976330
581.300000	57.957967
581.200000	57.973199
581.100000	57.959243
581.000000	57.913677
580.900000	57.911655
580.800000	57.918496
580.700000	57.920595
580.600000	57.863474
580.500000	57.789458
580.400000	57.784985
580.300000	57.807434
580.200000	57.825801
580.100000	57.834873
580.000000	57.813461
579.900000	57.789551
579.800000	57.782859
579.700000	57.750734
579.600000	57.748581
579.500000	57.764396
579.400000	57.726999
579.300000	57.691505
579.200000	57.710012
579.100000	57.695258
579.000000	57.691225
578.900000	57.703661
578.800000	57.710701
578.700000	57.673627
578.600000	57.644726
578.500000	57.604677
578.400000	57.580323
578.300000	57.605476
578.200000	57.584559
578.100000	57.580346
578.000000	57.592056
577.900000	57.543196
577.800000	57.580543
577.700000	57.560131
577.600000	57.522146
577.500000	57.522472
577.400000	57.479337
577.300000	57.452439
577.200000	57.456001
577.100000	57.421429
577.000000	57.411984
576.900000	57.411563
576.800000	57.410866
576.700000	57.421887
576.600000	57.437760
576.500000	57.396561
576.400000	57.363203
576.300000	57.360130
576.200000	57.349320
576.100000	57.307554
576.000000	57.304735
575.900000	57.317747
575.800000	57.309875
575.700000	57.290825
575.600000	57.285389
575.500000	57.238110
575.400000	57.241945
575.300000	57.251841
575.200000	57.245950
575.100000	57.227591
575.000000	57.254249
574.900000	57.209078
574.800000	57.147826
574.700000	57.165557
574.600000	57.135822
574.500000	57.114196
574.400000	57.137180
574.300000	57.139899
574.200000	57.104936
574.100000	57.097492
574.000000	57.106268
573.900000	57.088537
573.800000	57.059065
573.700000	57.044303
573.600000	57.046423
573.500000	57.033228
573.400000	57.022233
573.300000	57.063115
573.200000	57.023453
573.100000	56.986706
573.000000	57.000137
572.900000	57.009827
572.800000	56.981013
572.700000	56.980200
572.600000	56.937831
572.500000	56.910144
572.400000	56.924396
572.300000	56.920953
572.200000	56.876527
572.100000	56.841100
572.000000	56.891088
571.900000	56.858209
571.800000	56.856952
571.700000	56.819767
571.600000	56.805448
571.500000	56.806423
571.400000	56.782506
571.300000	56.813088
571.200000	56.801092
571.100000	56.766116
571.000000	56.775657
570.900000	56.760042
570.800000	56.729211
570.700000	56.725966
570.600000	56.707329
570.500000	56.694573
570.400000	56.710429
570.300000	56.672220
570.200000	56.649821
570.100000	56.640443
570.000000	56.607750
569.900000	56.599252
569.800000	56.599087
569.700000	56.596273
569.600000	56.545905
569.500000	56.592182
569.400000	56.557413
569.300000	56.562803
569.200000	56.510955
569.100000	56.481021
569.000000	56.541512
568.900000	56.468815
568.800000	56.488972
568.700000	56.456963
568.600000	56.485770
568.500000	56.400254
568.400000	56.411912
568.300000	56.404084
568.200000	56.406674
568.100000	56.465192
568.000000	56.374335
567.900000	56.384293
567.800000	56.374320
567.700000	56.344827
567.600000	56.331790
567.500000	56.330802
567.400000	56.349809
567.300000	56.359713
567.200000	56.318320
567.100000	56.349233
567.000000	56.272843
566.900000	56.315457
566.800000	56.243293
566.700000	56.283809
566.600000	56.249591
566.500000	56.225435
566.400000	56.234713
566.300000	56.273928
566.200000	56.185521
566.100000	56.121197
566.000000	56.176571
565.900000	56.182620
565.800000	56.143196
565.700000	56.126447
565.600000	56.120636
565.500000	56.110131
565.400000	56.085505
565.300000	56.048550
565.200000	56.078882
565.100000	56.097805
565.000000	56.031461
564.900000	56.024217
564.800000	56.072163
564.700000	56.058214
564.600000	55.974135
564.500000	55.989914
564.400000	55.960979
564.300000	55.931063
564.200000	55.933438
564.100000	55.942171
564.000000	55.960312
563.900000	55.903087
563.800000	55.879807
563.700000	55.861681
563.600000	55.903264
563.500000	55.869879
563.400000	55.874506
563.300000	55.885843
563.200000	55.861670
563.100000	55.799554
563.000000	55.831267
562.900000	55.799436
562.800000	55.778613
562.700000	55.753312
562.600000	55.785844
562.500000	55.767626
562.400000	55.756417
562.300000	55.729426
562.200000	55.768155
562.100000	55.756488
562.000000	55.755188
561.900000	55.749196
561.800000	55.693337
561.700000	55.682495
561.600000	55.701544
561.500000	55.664707
561.400000	55.650752
561.300000	55.639165
561.200000	55.664773
561.100000	55.642767
561.000000	55.637475
560.900000	55.608892
560.800000	55.580086
560.700000	55.565794
560.600000	55.604495
560.500000	55.620567
560.400000	55.574948
560.300000	55.577221
560.200000	55.515721
560.100000	55.549686
560.000000	55.519352
559.900000	55.494214
559.800000	55.505555
559.700000	55.515642
559.600000	55.518398
559.500000	55.490212
559.400000	55.435764
559.300000	55.421604
559.200000	55.431281
559.100000	55.439927
559.000000	55.440318
558.900000	55.402746
558.800000	55.370528
558.700000	55.355790
558.600000	55.377988
558.500000	55.365341
558.400000	55.313640
558.300000	55.321423
558.200000	55.337172
558.100000	55.321965
558.000000	55.297182
557.900000	55.282128
557.800000	55.288040
557.700000	55.295913
557.600000	55.272943
557.500000	55.276972
557.400000	55.278316
557.300000	55.229859
557.200000	55.194244
557.100000	55.210099
557.000000	55.225390
556.900000	55.193211
556.800000	55.162452
556.700000	55.151481
556.600000	55.156436
556.500000	55.155718
556.400000	55.141791
556.300000	55.135609
556.200000	55.118431
556.100000	55.094180
556.000000	55.063395
555.900000	55.066280
555.800000	55.077246
555.700000	55.048271
555.600000	55.067593
555.500000	55.078946
555.400000	55.029750
555.300000	54.997569
555.200000	55.010496
555.100000	55.005448
555.000000	54.984457
554.900000	55.020132
554.800000	55.011434
554.700000	54.941527
554.600000	54.906678
554.500000	54.911898
554.400000	54.910754
554.300000	54.897525
554.200000	54.896407
554.100000	54.877341
554.000000	54.878176
553.900000	54.851226
553.800000	54.822939
553.700000	54.825646
553.600000	54.828445
553.500000	54.819977
553.400000	54.805465
553.300000	54.795819
553.200000	54.766941
553.100000	54.786885
553.000000	54.786414
552.900000	54.738320
552.800000	54.725345
552.700000	54.713949
552.600000	54.724421
552.500000	54.726832
552.400000	54.686546
552.300000	54.680036
552.200000	54.694825
552.100000	54.709494
552.000000	54.690993
551.900000	54.642703
551.800000	54.625562
551.700000	54.630481
551.600000	54.620227
551.500000	54.593552
551.400000	54.567476
551.300000	54.553063
551.200000	54.573177
551.100000	54.570529
551.000000	54.555087
550.900000	54.526736
550.800000	54.520312
550.700000	54.535208
550.600000	54.517572
550.500000	54.502189
550.400000	54.484471
550.300000	54.465408
550.200000	54.449217
550.100000	54.416602
550.000000	54.429042
549.900000	54.448411
549.800000	54.427752
549.700000	54.426729
549.600000	54.367824
549.500000	54.389091
549.400000	54.400515
549.300000	54.384071
549.200000	54.369888
549.100000	54.370801
549.000000	54.361944
548.900000	54.351934
548.800000	54.332042
548.700000	54.308802
548.600000	54.324432
548.500000	54.274307
548.400000	54.268902
548.300000	54.245258
548.200000	54.247109
548.100000	54.259064
548.000000	54.247086
547.900000	54.243012
547.800000	54.248068
547.700000	54.205291
547.600000	54.195632
547.500000	54.189512
547.400000	54.186457
547.300000	54.173528
547.200000	54.141026
547.100000	54.131244
547.000000	54.158989
546.900000	54.134866
546.800000	54.113086
546.700000	54.124064
546.600000	54.096703
546.500000	54.096713
546.400000	54.069942
546.300000	54.052029
546.200000	54.078396
546.100000	54.051058
546.000000	54.032852
545.900000	53.993810
545.800000	54.026532
545.700000	54.038651
545.600000	53.972603
545.500000	53.984713
545.400000	53.954542
545.300000	53.962012
545.200000	53.939850
545.100000	53.957943
545.000000	53.890351
544.900000	53.899613
544.800000	53.886471
544.700000	53.879878
544.600000	53.880531
544.500000	53.875497
544.400000	53.869395
544.300000	53.849467
544.200000	53.830942
544.100000	53.838585
544.000000	53.816973
543.900000	53.796616
543.800000	53.782441
543.700000	53.779777
543.600000	53.769845
543.500000	53.739437
543.400000	53.721636
543.300000	53.729559
543.200000	53.706039
543.100000	53.756142
543.000000	53.750134
542.900000	53.718214
542.800000	53.708378
542.700000	53.742673
542.600000	53.653524
542.500000	53.664140
542.400000	53.666337
542.300000	53.649927
542.200000	53.647398
542.100000	53.648705
542.000000	53.616818
541.900000	53.590645
541.800000	53.612276
541.700000	53.616055
541.600000	53.571074
541.500000	53.546274
541.400000	53.513982
541.300000	53.563676
541.200000	53.582683
541.100000	53.527011
541.000000	53.503118
540.900000	53.500425
540.800000	53.509167
540.700000	53.464327
540.600000	53.493375
540.500000	53.454305
540.400000	53.417163
540.300000	53.460049
540.200000	53.395287
540.100000	53.405194
540.000000	53.390731
539.900000	53.412883
539.800000	53.380208
539.700000	53.392245
539.600000	53.392351
539.500000	53.369959
539.400000	53.360517
539.300000	53.377060
539.200000	53.363343
539.100000	53.317257
539.000000	53.346998
538.900000	53.307297
538.800000	53.292244
538.700000	53.261046
538.600000	53.248588
538.500000	53.238033
538.400000	53.227949
538.300000	53.244412
538.200000	53.248840
538.100000	53.207887
538.000000	53.224772
537.900000	53.215537
537.800000	53.216399
537.700000	53.197993
537.600000	53.205786
537.500000	53.161720
537.400000	53.181547
537.300000	53.143732
537.200000	53.147226
537.100000	53.129067
537.000000	53.089416
536.900000	53.091989
536.800000	53.087655
536.700000	53.112898
536.600000	53.106211
536.500000	53.081483
536.400000	53.027075
536.300000	53.074217
536.200000	53.064167
536.100000	53.049147
536.000000	52.983780
535.900000	53.025315
535.800000	53.018592
535.700000	52.995740
535.600000	52.952295
535.500000	52.968255
535.400000	52.975783
535.300000	52.955693
535.200000	52.934785
535.100000	52.940068
535.000000	52.940025
534.900000	52.889991
534.800000	52.909834
534.700000	52.896754
534.600000	52.878254
534.500000	52.871908
534.400000	52.870268
534.300000	52.866626
534.200000	52.843460
534.100000	52.830602
534.000000	52.824530
533.900000	52.830544
533.800000	52.800328
533.700000	52.807142
533.600000	52.784954
533.500000	52.762078
533.400000	52.770038
533.300000	52.773511
533.200000	52.784604
533.100000	52.767882
533.000000	52.726310
532.900000	52.707617
532.800000	52.701091
532.700000	52.699317
532.600000	52.694996
532.500000	52.675545
532.400000	52.675432
532.300000	52.639094
532.200000	52.646606
532.100000	52.675211
532.000000	52.672860
531.900000	52.633235
531.800000	52.622685
531.700000	52.628326
531.600000	52.602092
531.500000	52.607951
531.400000	52.589310
531.300000	52.572706
531.200000	52.570383
531.100000	52.561549
531.000000	52.564658
530.900000	52.557595
530.800000	52.518567
530.700000	52.514981
530.600000	52.516881
530.500000	52.504675
530.400000	52.491254
530.300000	52.486768
530.200000	52.480786
530.100000	52.464264
530.000000	52.445798
529.900000	52.417221
529.800000	52.405075
529.700000	52.413408
529.600000	52.410946
529.500000	52.410296
529.400000	52.395315
529.300000	52.388166
529.200000	52.357590
529.100000	52.347424
529.000000	52.346917
528.900000	52.353751
528.800000	52.357254
528.700000	52.325093
528.600000	52.315000
528.500000	52.309123
528.400000	52.290993
528.300000	52.282119
528.200000	52.277505
528.100000	52.273060
528.000000	52.267821
527.900000	52.263013
527.800000	52.253336
527.700000	52.239994
527.600000	52.233402
527.500000	52.235463
527.400000	52.241348
527.300000	52.237619
527.200000	52.207130
527.100000	52.179246
527.000000	52.170857
526.900000	52.166174
526.800000	52.166648
526.700000	52.144635
526.600000	52.120827
526.500000	52.141349
526.400000	52.127307
526.300000	52.108835
526.200000	52.119297
526.100000	52.103049
526.000000	52.097602
525.900000	52.094524
525.800000	52.061181
525.700000	52.034917
525.600000	52.025415
525.500000	52.057605
525.400000	52.066091
525.300000	52.059774
525.200000	52.034650
525.100000	52.023355
525.000000	52.021570
524.900000	51.982339
524.800000	51.991495
524.700000	51.980925
524.600000	51.983285
524.500000	51.988598
524.400000	51.968769
524.300000	51.955649
524.200000	51.931496
524.100000	51.918834
524.000000	51.917449
523.900000	51.897213
523.800000	51.890253
523.700000	51.890348
523.600000	51.897059
523.500000	51.892167
523.400000	51.864939
523.300000	51.855641
523.200000	51.852051
523.100000	51.835486
523.000000	51.827051
522.900000	51.804595
522.800000	51.808459
522.700000	51.799651
522.600000	51.795705
522.500000	51.777634
522.400000	51.768241
522.300000	51.762491
522.200000	51.749804
522.100000	51.744466
522.000000	51.763217
521.900000	51.736381
521.800000	51.716725
521.700000	51.730838
521.600000	51.714613
521.500000	51.693863
521.400000	51.688053
521.300000	51.678493
521.200000	51.670232
521.100000	51.661094
521.000000	51.653970
520.900000	51.641639
520.800000	51.640658
520.700000	51.605084
520.600000	51.614202
520.500000	51.605417
520.400000	51.607956
520.300000	51.581037
520.200000	51.565469
520.100000	51.565399
520.000000	51.564474
519.900000	51.602088
519.800000	51.567512
519.700000	51.569015
519.600000	51.534211
519.500000	51.532677
519.400000	51.548192
519.300000	51.536364
519.200000	51.520781
519.100000	51.526593
519.000000	51.504216
518.900000	51.450982
518.800000	51.487280
518.700000	51.488795
518.600000	51.472944
518.500000	51.465118
518.400000	51.469229
518.300000	51.466589
518.200000	51.447830
518.100000	51.440159
518.000000	51.438794
517.900000	51.439834
517.800000	51.438955
517.700000	51.426230
517.600000	51.417176
517.500000	51.397102
517.400000	51.414990
517.300000	51.413497
517.200000	51.373195
517.100000	51.383291
517.000000	51.365705
516.900000	51.370873
516.800000	51.351490
516.700000	51.382818
516.600000	51.366890
516.500000	51.341369
516.400000	51.314230
516.300000	51.321541
516.200000	51.321091
516.100000	51.283412
516.000000	51.274517
515.900000	51.298627
515.800000	51.293361
515.700000	51.300297
515.600000	51.263512
515.500000	51.242941
515.400000	51.263046
515.300000	51.230714
515.200000	51.255251
515.100000	51.240696
515.000000	51.203744
514.900000	51.213602
514.800000	51.219067
514.700000	51.218707
514.600000	51.230075
514.500000	51.206168
514.400000	51.186344
514.300000	51.183451
514.200000	51.169565
514.100000	51.151651
514.000000	51.146327
513.900000	51.132352
513.800000	51.136492
513.700000	51.132762
513.600000	51.164123
513.500000	51.127953
513.400000	51.127739
513.300000	51.113667
513.200000	51.123072
513.100000	51.130604
513.000000	51.104509
512.900000	51.079706
512.800000	51.103838
512.700000	51.080544
512.600000	51.107200
512.500000	51.058420
512.400000	51.063362
512.300000	51.050778
512.200000	51.057891
512.100000	51.045784
512.000000	51.043981
511.900000	51.054723
511.800000	51.052771
511.700000	51.019803
511.600000	51.023578
511.500000	51.005737
511.400000	51.014652
511.300000	50.986537
511.200000	50.988897
511.100000	50.980834
511.000000	50.977983
510.900000	50.972275
510.800000	50.977250
510.700000	50.949096
510.600000	50.963527
510.500000	50.965049
510.400000	50.967374
510.300000	50.937329
510.200000	50.954044
510.100000	50.938543
510.000000	50.916289
509.900000	50.932859
509.800000	50.918208
509.700000	50.910280
509.600000	50.888546
509.500000	50.887866
509.400000	50.885155
509.300000	50.894857
509.200000	50.909033
509.100000	50.918976
509.000000	50.904593
508.900000	50.890668
508.800000	50.891952
508.700000	50.901857
508.600000	50.898167
508.500000	50.883562
508.400000	50.879064
508.300000	50.851752
508.200000	50.848816
508.100000	50.869598
508.000000	50.845804
507.900000	50.848041
507.800000	50.837792
507.700000	50.839152
507.600000	50.840875
507.500000	50.827074
507.400000	50.842478
507.300000	50.837095
507.200000	50.846382
507.100000	50.846796
507.000000	50.852301
506.900000	50.832130
506.800000	50.840137
506.700000	50.849085
506.600000	50.848627
506.500000	50.847803
506.400000	50.845715
506.300000	50.834657
506.200000	50.801665
506.100000	50.788147
506.000000	50.813459
505.900000	50.848084
505.800000	50.848874
505.700000	50.841787
505.600000	50.840140
505.500000	50.843112
505.400000	50.831121
505.300000	50.833446
505.200000	50.822768
505.100000	50.819669
505.000000	50.820860
504.900000	50.831231
504.800000	50.810485
504.700000	50.813262
504.600000	50.818543
504.500000	50.833938
504.400000	50.839875
504.300000	50.825786
504.200000	50.836411
504.100000	50.833400
504.000000	50.819059
503.900000	50.818134
503.800000	50.827516
503.700000	50.820518
503.600000	50.815591
503.500000	50.829927
503.400000	50.851813
503.300000	50.862060
503.200000	50.872617
503.100000	50.872336
503.000000	50.856980
502.900000	50.872521
502.800000	50.884840
502.700000	50.874402
502.600000	50.873462
502.500000	50.869002
502.400000	50.876694
502.300000	50.892280
502.200000	50.883034
502.100000	50.878491
502.000000	50.891181
501.900000	50.908127
501.800000	50.887783
501.700000	50.877307
501.600000	50.900838
501.500000	50.912342
501.400000	50.911456
501.300000	50.914365
501.200000	50.934875
501.100000	50.929735
501.000000	50.919089
500.900000	50.924400
500.800000	50.924199
500.700000	50.926140
500.600000	50.923912
500.500000	50.938412
500.400000	50.942700
500.300000	50.956224
500.200000	50.955317
500.100000	50.961584
500.000000	50.971200
499.900000	50.997436
499.800000	51.005430
499.700000	50.963193
499.600000	50.978001
499.500000	50.983889
499.400000	50.983825
499.300000	51.005369
499.200000	51.023054
499.100000	51.029657
499.000000	51.033699
498.900000	51.040976
498.800000	51.038421
498.700000	51.069582
498.600000	51.070787
498.500000	51.058811
498.400000	51.068753
498.300000	51.082224
498.200000	51.100234
498.100000	51.089419
498.000000	51.075102
497.900000	51.046219
497.800000	51.093771
497.700000	51.114936
497.600000	51.132580
497.500000	51.119769
497.400000	51.112743
497.300000	51.095717
497.200000	51.090927
497.100000	51.106672
497.000000	51.100951
496.900000	51.133715
496.800000	51.128817
496.700000	51.140599
496.600000	51.168529
496.500000	51.151172
496.400000	51.137310
496.300000	51.160307
496.200000	51.162226
496.100000	51.156061
496.000000	51.163044
495.900000	51.175611
495.800000	51.195308
495.700000	51.192873
495.600000	51.203417
495.500000	51.214026
495.400000	51.190249
495.300000	51.245887
495.200000	51.238166
495.100000	51.237148
495.000000	51.268054
494.900000	51.235381
494.800000	51.252903
494.700000	51.273864
494.600000	51.211632
494.500000	51.268412
494.400000	51.248151
494.300000	51.250471
494.200000	51.290142
494.100000	51.300911
494.000000	51.276742
493.900000	51.266282
493.800000	51.304107
493.700000	51.305518
493.600000	51.282313
493.500000	51.285720
493.400000	51.297685
493.300000	51.282533
493.200000	51.308456
493.100000	51.334131
493.000000	51.321634
492.900000	51.302834
492.800000	51.325455
492.700000	51.293798
492.600000	51.320037
492.500000	51.331075
492.400000	51.331452
492.300000	51.321742
492.200000	51.338202
492.100000	51.340876
492.000000	51.324333
491.900000	51.329130
491.800000	51.352108
491.700000	51.372955
491.600000	51.379055
491.500000	51.323197
491.400000	51.336877
491.300000	51.356829
491.200000	51.321215
491.100000	51.317592
491.000000	51.332831
490.900000	51.408697
490.800000	51.374652
490.700000	51.288227
490.600000	51.400110
490.500000	51.378233
490.400000	51.371804
490.300000	51.332371
490.200000	51.382626
490.100000	51.373672
490.000000	51.361095
489.900000	51.358942
489.800000	51.379373
489.700000	51.394523
489.600000	51.323582
489.500000	51.304923
489.400000	51.364873
489.300000	51.335410
489.200000	51.330666
489.100000	51.317432
489.000000	51.344146
488.900000	51.356939
488.800000	51.371838
488.700000	51.353283
488.600000	51.324527
488.500000	51.348456
488.400000	51.380925
488.300000	51.367505
488.200000	51.356301
488.100000	51.372927
488.000000	51.331746
487.900000	51.345164
487.800000	51.340037
487.700000	51.325239
487.600000	51.319275
487.500000	51.338944
487.400000	51.332894
487.300000	51.301833
487.200000	51.282842
487.100000	51.258213
487.000000	51.312912
486.900000	51.269865
486.800000	51.278067
486.700000	51.304290
486.600000	51.293294
486.500000	51.273724
486.400000	51.294315
486.300000	51.286381
486.200000	51.280467
486.100000	51.274379
486.000000	51.260910
485.900000	51.267234
485.800000	51.250092
485.700000	51.237492
485.600000	51.258674
485.500000	51.237962
485.400000	51.205229
485.300000	51.203893
485.200000	51.229927
485.100000	51.187860
485.000000	51.155852
484.900000	51.189711
484.800000	51.203552
484.700000	51.192534
484.600000	51.187848
484.500000	51.165332
484.400000	51.129635
484.300000	51.138575
484.200000	51.139834
484.100000	51.113470
484.000000	51.145226
483.900000	51.145167
483.800000	51.142126
483.700000	51.083099
483.600000	51.086342
483.500000	51.091100
483.400000	51.054216
483.300000	51.068319
483.200000	51.011968
483.100000	51.061038
483.000000	51.044878
482.900000	51.048732
482.800000	51.049360
482.700000	50.984456
482.600000	50.969411
482.500000	51.009489
482.400000	50.963634
482.300000	50.912510
482.200000	50.935916
482.100000	50.934944
482.000000	50.934488
481.900000	50.946798
481.800000	50.907210
481.700000	50.864976
481.600000	50.905565
481.500000	50.869550
481.400000	50.812830
481.300000	50.821943
481.200000	50.856320
481.100000	50.830460
481.000000	50.772603
480.900000	50.784843
480.800000	50.764227
480.700000	50.752226
480.600000	50.758291
480.500000	50.763537
480.400000	50.745866
480.300000	50.721080
480.200000	50.699977
480.100000	50.681572
480.000000	50.675502
479.900000	50.660962
479.800000	50.629547
479.700000	50.582372
479.600000	50.610347
479.500000	50.614601
479.400000	50.601038
479.300000	50.577184
479.200000	50.552343
479.100000	50.537639
479.000000	50.527133
478.900000	50.532437
478.800000	50.502499
478.700000	50.500911
478.600000	50.495317
478.500000	50.474567
478.400000	50.444390
478.300000	50.464400
478.200000	50.465721
478.100000	50.427561
478.000000	50.396144
477.900000	50.412539
477.800000	50.408287
477.700000	50.394746
477.600000	50.391272
477.500000	50.398127
477.400000	50.362993
477.300000	50.354276
477.200000	50.387289
477.100000	50.386828
477.000000	50.367646
476.900000	50.335738
476.800000	50.313172
476.700000	50.326988
476.600000	50.299125
476.500000	50.262698
476.400000	50.272012
476.300000	50.275643
476.200000	50.281433
476.100000	50.272861
476.000000	50.261922
475.900000	50.271697
475.800000	50.237363
475.700000	50.195069
475.600000	50.185347
475.500000	50.207075
475.400000	50.209529
475.300000	50.170649
475.200000	50.165113
475.100000	50.168609
475.000000	50.170048
474.900000	50.176622
474.800000	50.190377
474.700000	50.156012
474.600000	50.128368
474.500000	50.134661
474.400000	50.131821
474.300000	50.117155
474.200000	50.093788
474.100000	50.098602
474.000000	50.104467
473.900000	50.098773
473.800000	50.085965
473.700000	50.080119
473.600000	50.085139
473.500000	50.081083
473.400000	50.054685
473.300000	50.040358
473.200000	50.036771
473.100000	50.019698
473.000000	50.019614
472.900000	50.021291
472.800000	50.010311
472.700000	49.994199
472.600000	50.007766
472.500000	49.995784
472.400000	49.989311
472.300000	49.966797
472.200000	49.978450
472.100000	49.979748
472.000000	49.967423
471.900000	49.984497
471.800000	49.964236
471.700000	49.951826
471.600000	49.931148
471.500000	49.936907
471.400000	49.915922
471.300000	49.925990
471.200000	49.911433
471.100000	49.912327
471.000000	49.909174
470.900000	49.897450
470.800000	49.918527
470.700000	49.888606
470.600000	49.892279
470.500000	49.899314
470.400000	49.843868
470.300000	49.852721
470.200000	49.872163
470.100000	49.857276
470.000000	49.850863
469.900000	49.839577
469.800000	49.827355
469.700000	49.847693
469.600000	49.843658
469.500000	49.834537
469.400000	49.827220
469.300000	49.812974
469.200000	49.790382
469.100000	49.784199
469.000000	49.778175
468.900000	49.793424
468.800000	49.787317
468.700000	49.768048
468.600000	49.758894
468.500000	49.744005
468.400000	49.757250
468.300000	49.754700
468.200000	49.758992
468.100000	49.763209
468.000000	49.758243
467.900000	49.692124
467.800000	49.693605
467.700000	49.736656
467.600000	49.693398
467.500000	49.723235
467.400000	49.730937
467.300000	49.715801
467.200000	49.703203
467.100000	49.735499
467.000000	49.697390
466.900000	49.685204
466.800000	49.675918
466.700000	49.644857
466.600000	49.649723
466.500000	49.674757
466.400000	49.671299
466.300000	49.656125
466.200000	49.684521
466.100000	49.658503
466.000000	49.618255
465.900000	49.615459
465.800000	49.628231
465.700000	49.622105
465.600000	49.613328
465.500000	49.609345
465.400000	49.613542
465.300000	49.612183
465.200000	49.616103
465.100000	49.623076
465.000000	49.635148
464.900000	49.608160
464.800000	49.601562
464.700000	49.640838
464.600000	49.625107
464.500000	49.635421
464.400000	49.586120
464.300000	49.561951
464.200000	49.572688
464.100000	49.608422
464.000000	49.532478
463.900000	49.565769
463.800000	49.564955
463.700000	49.588029
463.600000	49.569889
463.500000	49.575210
463.400000	49.544800
463.300000	49.540760
463.200000	49.585764
463.100000	49.575475
463.000000	49.576322
462.900000	49.571595
462.800000	49.587434
462.700000	49.549851
462.600000	49.549950
462.500000	49.545679
462.400000	49.593609
462.300000	49.621671
462.200000	49.549853
462.100000	49.547741
462.000000	49.525949
461.900000	49.540466
461.800000	49.556938
461.700000	49.533607
461.600000	49.532098
461.500000	49.557273
461.400000	49.595315
461.300000	49.590576
461.200000	49.576358
461.100000	49.560734
461.000000	49.563107
460.900000	49.527245
460.800000	49.528271
460.700000	49.548433
460.600000	49.558376
460.500000	49.548394
460.400000	49.554746
460.300000	49.543083
460.200000	49.577310
460.100000	49.525144
460.000000	49.551884
459.900000	49.554732
459.800000	49.551999
459.700000	49.601447
459.600000	49.565637
459.500000	49.554899
459.400000	49.542471
459.300000	49.553757
459.200000	49.571818
459.100000	49.548747
459.000000	49.557770
458.900000	49.547621
458.800000	49.547059
458.700000	49.569856
458.600000	49.550386
458.500000	49.559540
458.400000	49.551603
458.300000	49.550214
458.200000	49.570577
458.100000	49.605710
458.000000	49.597377
457.900000	49.559235
457.800000	49.560592
457.700000	49.566077
457.600000	49.562240
457.500000	49.563730
457.400000	49.570702
457.300000	49.574008
457.200000	49.614925
457.100000	49.585589
457.000000	49.574107
456.900000	49.591820
456.800000	49.584018
456.700000	49.580027
456.600000	49.577762
456.500000	49.598412
456.400000	49.613917
456.300000	49.603577
456.200000	49.613937
456.100000	49.578669
456.000000	49.632977
455.900000	49.637688
455.800000	49.609664
455.700000	49.618792
455.600000	49.636082
455.500000	49.637960
455.400000	49.616663
455.300000	49.644589
455.200000	49.599459
455.100000	49.609775
455.000000	49.634796
454.900000	49.624123
454.800000	49.635108
454.700000	49.639081
454.600000	49.626259
454.500000	49.599818
454.400000	49.644686
454.300000	49.643987
454.200000	49.615291
454.100000	49.645364
454.000000	49.635729
453.900000	49.629892
453.800000	49.622569
453.700000	49.632555
453.600000	49.654300
453.500000	49.664533
453.400000	49.632630
453.300000	49.624986
453.200000	49.630288
453.100000	49.626948
453.000000	49.658199
452.900000	49.683934
452.800000	49.672621
452.700000	49.670438
452.600000	49.642049
452.500000	49.665781
452.400000	49.649543
452.300000	49.615738
452.200000	49.643755
452.100000	49.675028
452.000000	49.699778
451.900000	49.702620
451.800000	49.690813
451.700000	49.705751
451.600000	49.690808
451.500000	49.660560
451.400000	49.643321
451.300000	49.653800
451.200000	49.659269
451.100000	49.657187
451.000000	49.648010
450.900000	49.676750
450.800000	49.673488
450.700000	49.662163
450.600000	49.685327
450.500000	49.687309
450.400000	49.652811
450.300000	49.665314
450.200000	49.684556
450.100000	49.659779
450.000000	49.684494
449.900000	49.705277
449.800000	49.709758
449.700000	49.709467
449.600000	49.709325
449.500000	49.704507
449.400000	49.693996
449.300000	49.692780
449.200000	49.700590
449.100000	49.744424
449.000000	49.750573
448.900000	49.741211
448.800000	49.754533
448.700000	49.763227
448.600000	49.729177
448.500000	49.716718
448.400000	49.731163
448.300000	49.729604
448.200000	49.733142
448.100000	49.734215
448.000000	49.734003
447.900000	49.713861
447.800000	49.704387
447.700000	49.701738
447.600000	49.722452
447.500000	49.758690
447.400000	49.771691
447.300000	49.760951
447.200000	49.745127
447.100000	49.716539
447.000000	49.727457
446.900000	49.717268
446.800000	49.714951
446.700000	49.684841
446.600000	49.710869
446.500000	49.723401
446.400000	49.685840
446.300000	49.703731
446.200000	49.739455
446.100000	49.748459
446.000000	49.717011
445.900000	49.758590
445.800000	49.725963
445.700000	49.721009
445.600000	49.738845
445.500000	49.761665
445.400000	49.787146
445.300000	49.775808
445.200000	49.731324
445.100000	49.741221
445.000000	49.740539
444.900000	49.734811
444.800000	49.753724
444.700000	49.754492
444.600000	49.734846
444.500000	49.746357
444.400000	49.731844
444.300000	49.742000
444.200000	49.778819
444.100000	49.775941
444.000000	49.745599
443.900000	49.738087
443.800000	49.717848
443.700000	49.685109
443.600000	49.708853
443.500000	49.688478
443.400000	49.700923
443.300000	49.737861
443.200000	49.714379
443.100000	49.706962
443.000000	49.695911
442.900000	49.682954
442.800000	49.694025
442.700000	49.721040
442.600000	49.695247
442.500000	49.628895
442.400000	49.630108
442.300000	49.656493
442.200000	49.645724
442.100000	49.671327
442.000000	49.627348
441.900000	49.659700
441.800000	49.641060
441.700000	49.633100
441.600000	49.644107
441.500000	49.667759
441.400000	49.638914
441.300000	49.614282
441.200000	49.615083
441.100000	49.595022
441.000000	49.648415
440.900000	49.591377
440.800000	49.596498
440.700000	49.530137
440.600000	49.575038
440.500000	49.584317
440.400000	49.580311
440.300000	49.570473
440.200000	49.528939
440.100000	49.553671
440.000000	49.525839
439.900000	49.574933
439.800000	49.538650
439.700000	49.538956
439.600000	49.581968
439.500000	49.594940
439.400000	49.513635
439.300000	49.464459
439.200000	49.502878
439.100000	49.557485
439.000000	49.526862
438.900000	49.468971
438.800000	49.482084
438.700000	49.447802
438.600000	49.484800
438.500000	49.534738
438.400000	49.501335
438.300000	49.492510
438.200000	49.452566
438.100000	49.463390
438.000000	49.483314
437.900000	49.504205
437.800000	49.452681
437.700000	49.498452
437.600000	49.421309
437.500000	49.420217
437.400000	49.417490
437.300000	49.412131
437.200000	49.442917
437.100000	49.417856
437.000000	49.411580
436.900000	49.458149
436.800000	49.446257
436.700000	49.388224
436.600000	49.394177
436.500000	49.384973
436.400000	49.403864
436.300000	49.429376
436.200000	49.401495
436.100000	49.359396
436.000000	49.411626
435.900000	49.327829
435.800000	49.324616
435.700000	49.346016
435.600000	49.270413
435.500000	49.351763
435.400000	49.347498
435.300000	49.386184
435.200000	49.345915
435.100000	49.382749
435.000000	49.281234
434.900000	49.328777
434.800000	49.332492
434.700000	49.314856
434.600000	49.363351
434.500000	49.333369
434.400000	49.322033
434.300000	49.329510
434.200000	49.319371
434.100000	49.320877
434.000000	49.324936
433.900000	49.326446
433.800000	49.279740
433.700000	49.249171
433.600000	49.260128
433.500000	49.307932
433.400000	49.249141
433.300000	49.235298
433.200000	49.244840
433.100000	49.236649
433.000000	49.268213
432.900000	49.262346
432.800000	49.236177
432.700000	49.257631
432.600000	49.272770
432.500000	49.196753
432.400000	49.217038
432.300000	49.241808
432.200000	49.237087
432.100000	49.202641
432.000000	49.182056
431.900000	49.177941
431.800000	49.181766
431.700000	49.186150
431.600000	49.174867
431.500000	49.201988
431.400000	49.199743
431.300000	49.124517
431.200000	49.177426
431.100000	49.161226
431.000000	49.142046
430.900000	49.147456
430.800000	49.129977
430.700000	49.122577
430.600000	49.142025
430.500000	49.131497
430.400000	49.136525
430.300000	49.082962
430.200000	49.105464
430.100000	49.054350
430.000000	49.073314
429.900000	49.072047
429.800000	49.079513
429.700000	49.072946
429.600000	49.078029
429.500000	49.088473
429.400000	49.092855
429.300000	49.097221
429.200000	49.037977
429.100000	49.037965
429.000000	49.053001
428.900000	49.036058
428.800000	49.052445
428.700000	49.057556
428.600000	49.103818
428.500000	49.054013
428.400000	49.025059
428.300000	49.052716
428.200000	49.029084
428.100000	48.994479
428.000000	49.022406
427.900000	49.049141
427.800000	49.056706
427.700000	49.040136
427.600000	49.035958
427.500000	49.021698
427.400000	49.028206
427.300000	49.015690
427.200000	48.981891
427.100000	48.944965
427.000000	48.991609
426.900000	48.994682
426.800000	48.951862
426.700000	48.946418
426.600000	48.924777
426.500000	48.912881
426.400000	48.940667
426.300000	48.961864
426.200000	48.970036
426.100000	48.937060
426.000000	48.932190
425.900000	48.951358
425.800000	48.937318
425.700000	48.910455
425.600000	48.914542
425.500000	48.917640
425.400000	48.924558
425.300000	48.915625
425.200000	48.904108
425.100000	48.894972
425.000000	48.915206
424.900000	48.928668
424.800000	48.910173
424.700000	48.873420
424.600000	48.860491
424.500000	48.847932
424.400000	48.879323
424.300000	48.875632
424.200000	48.859949
424.100000	48.858437
424.000000	48.823922
423.900000	48.812913
423.800000	48.808202
423.700000	48.815476
423.600000	48.845680
423.500000	48.853249
423.400000	48.813376
423.300000	48.776671
423.200000	48.811095
423.100000	48.825843
423.000000	48.801979
422.900000	48.802471
422.800000	48.807700
422.700000	48.788866
422.600000	48.792938
422.500000	48.805813
422.400000	48.817615
422.300000	48.799325
422.200000	48.751394
422.100000	48.764314
422.000000	48.740112
421.900000	48.751097
421.800000	48.759814
421.700000	48.738428
421.600000	48.748264
421.500000	48.744442
421.400000	48.732505
421.300000	48.718826
421.200000	48.751042
421.100000	48.708665
421.000000	48.662182
420.900000	48.681240
420.800000	48.674886
420.700000	48.702443
420.600000	48.696987
420.500000	48.668901
420.400000	48.669001
420.300000	48.658521
420.200000	48.664089
420.100000	48.671586
420.000000	48.645544
419.900000	48.666449
419.800000	48.668403
419.700000	48.637911
419.600000	48.690168
419.500000	48.697714
419.400000	48.652828
419.300000	48.617283
419.200000	48.628407
419.100000	48.660005
419.000000	48.617003
418.900000	48.590188
418.800000	48.586200
418.700000	48.580394
418.600000	48.602437
418.500000	48.595981
418.400000	48.584176
418.300000	48.554370
418.200000	48.571886
418.100000	48.566140
418.000000	48.560919
417.900000	48.560841
417.800000	48.556226
417.700000	48.529637
417.600000	48.573867
417.500000	48.570891
417.400000	48.545740
417.300000	48.564872
417.200000	48.544133
417.100000	48.528311
417.000000	48.557204
416.900000	48.518718
416.800000	48.546699
416.700000	48.495683
416.600000	48.461025
416.500000	48.498387
416.400000	48.485143
416.300000	48.479167
416.200000	48.478346
416.100000	48.470634
416.000000	48.462937
415.900000	48.509971
415.800000	48.477113
415.700000	48.472498
415.600000	48.446913
415.500000	48.427908
415.400000	48.404386
415.300000	48.390837
415.200000	48.468691
415.100000	48.468749
415.000000	48.393927
414.900000	48.383096
414.800000	48.427295
414.700000	48.369650
414.600000	48.344302
414.500000	48.368887
414.400000	48.422949
414.300000	48.350933
414.200000	48.333732
414.100000	48.394149
414.000000	48.379357
413.900000	48.345507
413.800000	48.386405
413.700000	48.386978
413.600000	48.335328
413.500000	48.341292
413.400000	48.323109
413.300000	48.336718
413.200000	48.314035
413.100000	48.323221
413.000000	48.343796
412.900000	48.307279
412.800000	48.291079
412.700000	48.352315
412.600000	48.344674
412.500000	48.359766
412.400000	48.272387
412.300000	48.251590
412.200000	48.229177
412.100000	48.284999
412.000000	48.277835
411.900000	48.260020
411.800000	48.192534
411.700000	48.272868
411.600000	48.282093
411.500000	48.264402
411.400000	48.294470
411.300000	48.242512
411.200000	48.206237
411.100000	48.229804
411.000000	48.161201
410.900000	48.217521
410.800000	48.263157
410.700000	48.186643
410.600000	48.185498
410.500000	48.207409
410.400000	48.140073
410.300000	48.219646
410.200000	48.219305
410.100000	48.239344
410.000000	48.213289
409.900000	48.204875
409.800000	48.150038
409.700000	48.142934
409.600000	48.180826
409.500000	48.163598
409.400000	48.174612
409.300000	48.152912
409.200000	48.139819
409.100000	48.099689
409.000000	48.116770
408.900000	48.063540
408.800000	48.101591
408.700000	48.088623
408.600000	48.090354
408.500000	48.096246
408.400000	48.118838
408.300000	48.078301
408.200000	48.098663
408.100000	48.105062
408.000000	48.106527
407.900000	48.101678
407.800000	48.044012
407.700000	48.079938
407.600000	48.042937
407.500000	48.024833
407.400000	48.014305
407.300000	48.004169
407.200000	48.054413
407.100000	48.049842
407.000000	48.043182
406.900000	48.034838
406.800000	48.063150
406.700000	48.028382
406.600000	48.019693
406.500000	47.996986
406.400000	47.979089
406.300000	48.001655
406.200000	48.028287
406.100000	47.918655
406.000000	47.976521
405.900000	47.956954
405.800000	47.950235
405.700000	47.982832
405.600000	47.980003
405.500000	47.972883
405.400000	47.975568
405.300000	48.000233
405.200000	47.999715
405.100000	48.001580
405.000000	47.953159
404.900000	47.965093
404.800000	47.943238
404.700000	47.914724
404.600000	47.926114
404.500000	47.940716
404.400000	47.947966
404.300000	47.949664
404.200000	47.943527
404.100000	47.929721
404.000000	47.886706
403.900000	47.863467
403.800000	47.846059
403.700000	47.861423
403.600000	47.906168
403.500000	47.885662
403.400000	47.823422
403.300000	47.836906
403.200000	47.858802
403.100000	47.860944
403.000000	47.861853
402.900000	47.873461
402.800000	47.780573
402.700000	47.821480
402.600000	47.851352
402.500000	47.798146
402.400000	47.806122
402.300000	47.826098
402.200000	47.818461
402.100000	47.802349
402.000000	47.843471
401.900000	47.795447
401.800000	47.809948
401.700000	47.792496
401.600000	47.761747
401.500000	47.734333
401.400000	47.752537
401.300000	47.809630
401.200000	47.775741
401.100000	47.741954
401.000000	47.727036
400.900000	47.720905
400.800000	47.750921
400.700000	47.736177
400.600000	47.728848
400.500000	47.755753
400.400000	47.784644
400.300000	47.764010
400.200000	47.727985
400.100000	47.720738
400.000000	47.749294
399.900000	47.737855
399.800000	47.718215
399.700000	47.695871
399.600000	47.702946
399.500000	47.696531
399.400000	47.708534
399.300000	47.695543
399.200000	47.681707
399.100000	47.667569
399.000000	47.650109
398.900000	47.662003
398.800000	47.686863
398.700000	47.724669
398.600000	47.662396
398.500000	47.622067
398.400000	47.631257
398.300000	47.637454
398.200000	47.659972
398.100000	47.656035
398.000000	47.668786
397.900000	47.648192
397.800000	47.636558
397.700000	47.641086
397.600000	47.640964
397.500000	47.601278
397.400000	47.584641
397.300000	47.594574
397.200000	47.576297
397.100000	47.548182
397.000000	47.593703
396.900000	47.606432
396.800000	47.567095
396.700000	47.534004
396.600000	47.499348
396.500000	47.504431
396.400000	47.537490
396.300000	47.533854
396.200000	47.516871
396.100000	47.532640
396.000000	47.539225
395.900000	47.531167
395.800000	47.530680
395.700000	47.504538
395.600000	47.492175
395.500000	47.527298
395.400000	47.495810
395.300000	47.477554
395.200000	47.477299
395.100000	47.484385
395.000000	47.480587
394.900000	47.504142
394.800000	47.511873
394.700000	47.486346
394.600000	47.459000
394.500000	47.472400
394.400000	47.456695
394.300000	47.434385
394.200000	47.417633
394.100000	47.386565
394.000000	47.382679
393.900000	47.469735
393.800000	47.479038
393.700000	47.414877
393.600000	47.403417
393.500000	47.412345
393.400000	47.435982
393.300000	47.385612
393.200000	47.385476
393.100000	47.332559
393.000000	47.332207
392.900000	47.378575
392.800000	47.382122
392.700000	47.367004
392.600000	47.377105
392.500000	47.388543
392.400000	47.393686
392.300000	47.369604
392.200000	47.380601
392.100000	47.366533
392.000000	47.318940
391.900000	47.316090
391.800000	47.353989
391.700000	47.388892
391.600000	47.385950
391.500000	47.311965
391.400000	47.294544
391.300000	47.323296
391.200000	47.351517
391.100000	47.278207
391.000000	47.305082
390.900000	47.342406
390.800000	47.309823
390.700000	47.232723
390.600000	47.273698
390.500000	47.237622
390.400000	47.186608
390.300000	47.254821
390.200000	47.264544
390.100000	47.274963
390.000000	47.239589
389.900000	47.196791
389.800000	47.136952
389.700000	47.200944
389.600000	47.258424
389.500000	47.222782
389.400000	47.234063
389.300000	47.174059
389.200000	47.184576
389.100000	47.166363
389.000000	47.215441
388.900000	47.169625
388.800000	47.193162
388.700000	47.186057
388.600000	47.161224
388.500000	47.156195
388.400000	47.087465
388.300000	47.153758
388.200000	47.103746
388.100000	47.096882
388.000000	47.122107
387.900000	47.137504
387.800000	47.063727
387.700000	47.073216
387.600000	47.125994
387.500000	47.140001
387.400000	47.106332
387.300000	47.058987
387.200000	47.053382
387.100000	47.103398
387.000000	47.078390
386.900000	47.002115
386.800000	47.022556
386.700000	47.005346
386.600000	47.018024
386.500000	47.012516
386.400000	46.953610
386.300000	47.026802
386.200000	47.035738
386.100000	46.930709
386.000000	47.005650
385.900000	46.966776
385.800000	46.965668
385.700000	46.985553
385.600000	47.002195
385.500000	46.934454
385.400000	46.954462
385.300000	46.873257
385.200000	46.919565
385.100000	46.946810
385.000000	46.929851
384.900000	46.890362
384.800000	46.840244
384.700000	46.879484
384.600000	46.790641
384.500000	46.918002
384.400000	46.859885
384.300000	46.860845
384.200000	46.874904
384.100000	46.816674
384.000000	46.844618
383.900000	46.822117
383.800000	46.849174
383.700000	46.795395
383.600000	46.810225
383.500000	46.777646
383.400000	46.791297
383.300000	46.707625
383.200000	46.777593
383.100000	46.738114
383.000000	46.680625
382.900000	46.681879
382.800000	46.685902
382.700000	46.718504
382.600000	46.679883
382.500000	46.604697
382.400000	46.615709
382.300000	46.681809
382.200000	46.698918
382.100000	46.635451
382.000000	46.644104
381.900000	46.641372
381.800000	46.625278
381.700000	46.586483
381.600000	46.611247
381.500000	46.551399
381.400000	46.554517
381.300000	46.569944
381.200000	46.628217
381.100000	46.607318
381.000000	46.482226
380.900000	46.527846
380.800000	46.473105
380.700000	46.495092
380.600000	46.506887
380.500000	46.464161
380.400000	46.447432
380.300000	46.451039
380.200000	46.455005
380.100000	46.484598
380.000000	46.407059
379.900000	46.403767
379.800000	46.377689
379.700000	46.422192
379.600000	46.428908
379.500000	46.379888
379.400000	46.290611
379.300000	46.327393
379.200000	46.294471
379.100000	46.296772
379.000000	46.248846
378.900000	46.258465
378.800000	46.266642
378.700000	46.281482
378.600000	46.239188
378.500000	46.185151
378.400000	46.179365
378.300000	46.180792
378.200000	46.100654
378.100000	46.110232
378.000000	46.117076
377.900000	45.994235
377.800000	45.972250
377.700000	46.096796
377.600000	46.076239
377.500000	46.062673
377.400000	46.109715
377.300000	46.102690
377.200000	46.001378
377.100000	45.904300
377.000000	45.906372
376.900000	45.899685
376.800000	45.863141
376.700000	45.797616
376.600000	45.892287
376.500000	45.958647
376.400000	45.840942
376.300000	45.834878
376.200000	45.861311
376.100000	45.804691
376.000000	45.781281
375.900000	45.776797
375.800000	45.732803
375.700000	45.719348
375.600000	45.683433
375.500000	45.694140
375.400000	45.713769
375.300000	45.685526
375.200000	45.684414
375.100000	45.614985
375.000000	45.418757
374.900000	45.418590
374.800000	45.472541
374.700000	45.475884
374.600000	45.449726
374.500000	45.436934
374.400000	45.420425
374.300000	45.369350
374.200000	45.380872
374.100000	45.357107
374.000000	45.379426
373.900000	45.369383
373.800000	45.271478
373.700000	45.198962
373.600000	45.196954
373.500000	45.166110
373.400000	45.126805
373.300000	45.082056
373.200000	45.008807
373.100000	45.021228
373.000000	45.031989
372.900000	44.980379
372.800000	44.881813
372.700000	44.826317
372.600000	44.793531
372.500000	44.782484
372.400000	44.781745
372.300000	44.698179
372.200000	44.671742
372.100000	44.678835
372.000000	44.612054
371.900000	44.543009
371.800000	44.539841
371.700000	44.550598
371.600000	44.512093
371.500000	44.417604
371.400000	44.383177
371.300000	44.345328
371.200000	44.293113
371.100000	44.278678
371.000000	44.230643
370.900000	44.210544
370.800000	44.148960
370.700000	44.089321
370.600000	44.064463
370.500000	44.037057
370.400000	43.928124
370.300000	43.892363
370.200000	43.891120
370.100000	43.854195
370.000000	43.812857
369.900000	43.754427
369.800000	43.753993
369.700000	43.637091
369.600000	43.520094
369.500000	43.492490
369.400000	43.424653
369.300000	43.362819
369.200000	43.319936
369.100000	43.251607
369.000000	43.169815
368.900000	43.143325
368.800000	43.049801
368.700000	42.991749
368.600000	42.947842
368.500000	42.928260
368.400000	42.847346
368.300000	42.695554
368.200000	42.673075
368.100000	42.636209
368.000000	42.536730
367.900000	42.485424
367.800000	42.405804
367.700000	42.264753
367.600000	42.208327
367.500000	42.148266
367.400000	42.119990
367.300000	42.110411
367.200000	42.005751
367.100000	41.917467
367.000000	41.858518
366.900000	41.755273
366.800000	41.663608
366.700000	41.623447
366.600000	41.550998
366.500000	41.476344
366.400000	41.341433
366.300000	41.237748
366.200000	41.192119
366.100000	41.058618
366.000000	40.978886
365.900000	40.866435
365.800000	40.770729
365.700000	40.669688
365.600000	40.599308
365.500000	40.542833
365.400000	40.428080
365.300000	40.403470
365.200000	40.302829
365.100000	40.159239
365.000000	40.043647
364.900000	39.877520
364.800000	39.712682
364.700000	39.728848
364.600000	39.673591
364.500000	39.484071
364.400000	39.366540
364.300000	39.232799
364.200000	39.197296
364.100000	38.990848
364.000000	38.926458
363.900000	38.793415
363.800000	38.691148
363.700000	38.542970
363.600000	38.364175
363.500000	38.295558
363.400000	38.126238
363.300000	38.050643
363.200000	37.897788
363.100000	37.772626
363.000000	37.588679
362.900000	37.499725
362.800000	37.365239
362.700000	37.196765
362.600000	37.096129
362.500000	36.955911
362.400000	36.836850
362.300000	36.623284
362.200000	36.535897
362.100000	36.409124
362.000000	36.190236
361.900000	35.993425
361.800000	35.893790
361.700000	35.718501
361.600000	35.589679
361.500000	35.433179
361.400000	35.232371
361.300000	35.084384
361.200000	34.969515
361.100000	34.723583
361.000000	34.566343
360.900000	34.392015
360.800000	34.117533
360.700000	33.997117
360.600000	33.859458
360.500000	33.710756
360.400000	33.471335
360.300000	33.286391
360.200000	33.108868
360.100000	32.874071
360.000000	32.722684
359.900000	32.550610
359.800000	32.369934
359.700000	32.115880
359.600000	31.974820
359.500000	31.802259
359.400000	31.555072
359.300000	31.362469
359.200000	31.168728
359.100000	30.979828
359.000000	30.746760
358.900000	30.564127
358.800000	30.390040
358.700000	30.161386
358.600000	29.932674
358.500000	29.697058
358.400000	29.463472
358.300000	29.288084
358.200000	29.092308
358.100000	28.868642
358.000000	28.602784
357.900000	28.429196
357.800000	28.206029
357.700000	27.955802
357.600000	27.678882
357.500000	27.467241
357.400000	27.282044
357.300000	27.002865
357.200000	26.753674
357.100000	26.550087
357.000000	26.208786
356.900000	25.967921
356.800000	25.773908
356.700000	25.526630
356.600000	25.301564
356.500000	25.062687
356.400000	24.826288
356.300000	24.516048
356.200000	24.310241
356.100000	24.010691
356.000000	23.789268
355.900000	23.558377
355.800000	23.287787
355.700000	23.061418
355.600000	22.782576
355.500000	22.534267
355.400000	22.307929
355.300000	21.986755
355.200000	21.750901
355.100000	21.413522
355.000000	21.206495
354.900000	20.915554
354.800000	20.673055
354.700000	20.425967
354.600000	20.163094
354.500000	19.878595
354.400000	19.625260
354.300000	19.386637
354.200000	19.086618
354.100000	18.803479
354.000000	18.545742
353.900000	18.286156
353.800000	18.007373
353.700000	17.746137
353.600000	17.483163
353.500000	17.219356
353.400000	16.970102
353.300000	16.706815
353.200000	16.441999
353.100000	16.204240
353.000000	15.905591
352.900000	15.638615
352.800000	15.357700
352.700000	15.143098
352.600000	14.836950
352.500000	14.601595
352.400000	14.348380
352.300000	14.087826
352.200000	13.844040
352.100000	13.595556
352.000000	13.341121
351.900000	13.100239
351.800000	12.836992
351.700000	12.574202
351.600000	12.350785
351.500000	12.104129
351.400000	11.857662
351.300000	11.637406
351.200000	11.403558
351.100000	11.161032
351.000000	10.933160
350.900000	10.659318
350.800000	10.422074
350.700000	10.210497
350.600000	10.008296
350.500000	9.788082
350.400000	9.558148
350.300000	9.367353
350.200000	9.131302
350.100000	8.914088
350.000000	8.719315
349.900000	8.523463
349.800000	8.294344
349.700000	8.062543
349.600000	7.861355
349.500000	7.678354
349.400000	7.490006
349.300000	7.298712
349.200000	7.097229
349.100000	6.919765
349.000000	6.729851
348.900000	6.563251
348.800000	6.385831
348.700000	6.213574
348.600000	6.036908
348.500000	5.874127
348.400000	5.718334
348.300000	5.542546
348.200000	5.379841
348.100000	5.225948
348.000000	5.077256
347.900000	4.938097
347.800000	4.794433
347.700000	4.642942
347.600000	4.499302
347.500000	4.364136
347.400000	4.215838
347.300000	4.090952
347.200000	3.973301
347.100000	3.837219
347.000000	3.705409
346.900000	3.586980
346.800000	3.475705
346.700000	3.349613
346.600000	3.236959
346.500000	3.130584
346.400000	3.016465
346.300000	2.916769
346.200000	2.823384
346.100000	2.737361
346.000000	2.635986
345.900000	2.530293
345.800000	2.440568
345.700000	2.359384
345.600000	2.288884
345.500000	2.208061
345.400000	2.115294
345.300000	2.030166
345.200000	1.951607
345.100000	1.877533
345.000000	1.805947
344.900000	1.738218
344.800000	1.677998
344.700000	1.609387
344.600000	1.543461
344.500000	1.482644
344.400000	1.418572
344.300000	1.364646
344.200000	1.310012
344.100000	1.251251
344.000000	1.197169
343.900000	1.148110
343.800000	1.097429
343.700000	1.052014
343.600000	1.009972
343.500000	0.962205
343.400000	0.922144
343.300000	0.887982
343.200000	0.848504
343.100000	0.807310
343.000000	0.770038
342.900000	0.735431
342.800000	0.700751
342.700000	0.668302
342.600000	0.631820
342.500000	0.604325
342.400000	0.583498
342.300000	0.553254
342.200000	0.528033
342.100000	0.498778
342.000000	0.470302
341.900000	0.445499
341.800000	0.419717
341.700000	0.396530
341.600000	0.378080
341.500000	0.360373
341.400000	0.347637
341.300000	0.332867
341.200000	0.311688
341.100000	0.289719
341.000000	0.272878
340.900000	0.254881
340.800000	0.239889
340.700000	0.231949
340.600000	0.222050
340.500000	0.207570
340.400000	0.192392
340.300000	0.182879
340.200000	0.164016
340.100000	0.155892
340.000000	0.149505
339.900000	0.136884
339.800000	0.131320
339.700000	0.119402
339.600000	0.113092
339.500000	0.101448
339.400000	0.098873
339.300000	0.088997
339.200000	0.085348
339.100000	0.079105
339.000000	0.069531
338.900000	0.066951
338.800000	0.069498
338.700000	0.066522
338.600000	0.057098
338.500000	0.057856
338.400000	0.055465
338.300000	0.044626
338.200000	0.044664
338.100000	0.037668
338.000000	0.040117
337.900000	0.037706
337.800000	0.034601
337.700000	0.031886
337.600000	0.031617
337.500000	0.030601
337.400000	0.022841
337.300000	0.020227
337.200000	0.011565
337.100000	0.016885
337.000000	0.021734
336.900000	0.020261
336.800000	0.017639
336.700000	0.016815
336.600000	0.006627
336.500000	0.015114
336.400000	0.011576
336.300000	0.010465
336.200000	0.011123
336.100000	0.014109
336.000000	0.011568
335.900000	0.011951
335.800000	0.009144
335.700000	0.004388
335.600000	0.009335
335.500000	0.009518
335.400000	-0.000653
335.300000	0.007939
335.200000	0.011953
335.100000	0.009809
335.000000	0.012720
334.900000	0.010091
334.800000	0.001401
334.700000	0.012430
334.600000	0.009720
334.500000	0.002992
334.400000	0.007091
334.300000	0.011874
334.200000	0.011677
334.100000	0.010735
334.000000	0.004767
333.900000	0.004296
333.800000	0.012057
333.700000	0.013838
333.600000	0.004117
333.500000	0.004673
333.400000	0.005138
333.300000	0.002523
333.200000	0.001776
333.100000	0.008514
333.000000	0.004209
332.900000	0.009349
332.800000	0.006920
332.700000	0.001967
332.600000	0.006079
332.500000	0.006267
332.400000	0.000934
332.300000	-0.000280
332.200000	0.004123
332.100000	0.004021
332.000000	0.003084
331.900000	0.005052
331.800000	0.004014
331.700000	0.005895
331.600000	0.005609
331.500000	0.006175
331.400000	0.007862
331.300000	0.012449
331.200000	0.004402
331.100000	0.012813
331.000000	0.011984
330.900000	0.005525
330.800000	0.009829
330.700000	0.011795
330.600000	0.003930
330.500000	0.010109
330.400000	0.009837
330.300000	0.002341
330.200000	0.015796
330.100000	0.001308
330.000000	0.000561
329.900000	0.004398
329.800000	0.008233
329.700000	0.006645
329.600000	0.006743
329.500000	0.006833
329.400000	0.003370
329.300000	0.005528
329.200000	0.009368
329.100000	-0.000000
329.000000	0.004209
328.900000	0.007866
328.800000	0.005711
328.700000	0.011147
328.600000	0.006184
328.500000	0.004872
328.400000	0.015153
328.300000	0.015083
328.200000	0.008257
328.100000	0.009477
328.000000	0.002623
327.900000	0.004874
327.800000	0.008607
327.700000	0.006180
327.600000	0.002436
327.500000	0.006473
327.400000	0.005533
327.300000	0.004123
327.200000	0.004681
327.100000	0.011235
327.000000	0.011521
326.900000	0.009099
326.800000	0.006382
326.700000	0.006850
326.600000	0.008167
326.500000	0.004686
326.400000	0.008817
326.300000	0.016040
326.200000	0.011155
326.100000	0.011438
326.000000	0.012470
325.900000	0.009661
325.800000	-0.001312
325.700000	0.009754
325.600000	0.009003
325.500000	0.006835
325.400000	0.013486
325.300000	0.009671
325.200000	0.005353
325.100000	0.004882
325.000000	0.000562
324.900000	0.004498
324.800000	0.003565
324.700000	0.003096
324.600000	0.004410
324.500000	0.006940
324.400000	0.013023
324.300000	0.012749
324.200000	0.009478
324.100000	0.007044
324.000000	0.012479
323.900000	0.006008
323.800000	0.002815
323.700000	0.008908
323.600000	0.009287
323.500000	0.010323
323.400000	0.009384
323.300000	0.005635
323.200000	0.010712
323.100000	0.010520
323.000000	0.006475
322.900000	0.013794
322.800000	0.006575
322.700000	0.002724
322.600000	0.007878
322.500000	0.006845
322.400000	0.005635
322.300000	0.014652
322.200000	0.009958
322.100000	0.005449
322.000000	0.003378
321.900000	0.002723
321.800000	0.004506
321.700000	0.008166
321.600000	0.009202
321.500000	0.004507
321.400000	0.004513
321.300000	0.008937
321.200000	0.002820
321.100000	-0.001315
321.000000	-0.002630
320.900000	-0.002912
320.800000	0.000564
320.700000	0.003951
320.600000	0.008734
320.500000	0.006191
320.400000	0.002253
320.300000	0.010333
320.200000	0.011929
320.100000	0.005549
320.000000	0.006776
319.900000	0.014854
319.800000	0.013159
319.700000	0.009407
319.600000	0.009496
319.500000	0.006202
319.400000	0.009209
319.300000	0.015409
319.200000	0.011211
319.100000	0.002267
319.000000	-0.000094
318.900000	0.004629
318.800000	0.002738
318.700000	0.002076
318.600000	0.002737
318.500000	-0.000566
318.400000	0.001416
318.300000	0.006706
318.200000	0.003970
318.100000	-0.000945
318.000000	0.000189
317.900000	0.000283
317.800000	-0.002078
317.700000	-0.000283
317.600000	0.000378
317.500000	-0.000756
317.400000	-0.001228
317.300000	-0.002361
317.200000	-0.001512
317.100000	0.002648
317.000000	0.002080
316.900000	-0.001040
316.800000	-0.000946
316.700000	-0.000284
316.600000	0.002364
316.500000	0.003879
316.400000	0.003218
316.300000	0.002365
316.200000	0.001514
316.100000	-0.001608
316.000000	-0.004824
315.900000	-0.000189
315.800000	-0.000662
315.700000	-0.000851
315.600000	0.004917
315.500000	0.005298
315.400000	0.001514
315.300000	-0.003311
315.200000	-0.005300
315.100000	-0.001136
315.000000	0.003027
314.900000	0.000189
314.800000	0.000568
314.700000	0.002365
314.600000	0.002838
314.500000	-0.001134
314.400000	-0.003498
314.300000	-0.000662
314.200000	-0.003784
314.100000	-0.002933
314.000000	-0.002556
313.900000	-0.000757
313.800000	0.000757
313.700000	0.001609
313.600000	-0.002747
313.500000	0.000189
313.400000	0.001799
313.300000	-0.003410
313.200000	0.003694
313.100000	0.005586
313.000000	-0.003219
312.900000	0.000284
312.800000	-0.001042
312.700000	0.002366
312.600000	0.006818
312.500000	0.004828
312.400000	0.004544
312.300000	0.004167
312.200000	-0.001799
312.100000	-0.003409
312.000000	0.000379
311.900000	-0.000000
311.800000	0.001233
311.700000	0.002370
311.600000	0.001893
311.500000	-0.001990
311.400000	-0.001327
311.300000	0.000285
311.200000	-0.002940
311.100000	-0.001327
311.000000	-0.000759
310.900000	0.002560
310.800000	0.001043
310.700000	-0.002655
310.600000	-0.000854
310.500000	0.002561
310.400000	0.005974
310.300000	-0.000854
310.200000	0.001043
310.100000	0.000853
310.000000	-0.002181
309.900000	-0.000758
309.800000	0.001991
309.700000	-0.001897
309.600000	-0.002846
309.500000	-0.002372
309.400000	-0.000379
309.300000	0.000665
309.200000	0.001235
309.100000	-0.004370
309.000000	0.003228
308.900000	-0.001802
308.800000	-0.003894
308.700000	-0.001993
308.600000	-0.000855
308.500000	-0.000475
308.400000	0.006273
308.300000	0.006365
308.200000	0.001329
308.100000	0.001902
308.000000	-0.000190
307.900000	0.001426
307.800000	0.000950
307.700000	0.000285
307.600000	0.002091
307.500000	0.005985
307.400000	0.004842
307.300000	0.000571
307.200000	0.004759
307.100000	0.001140
307.000000	-0.003805
306.900000	0.007897
306.800000	0.005330
306.700000	-0.000095
306.600000	0.005517
306.500000	0.005330
306.400000	0.000761
306.300000	0.000952
306.200000	0.005715
306.100000	0.001618
306.000000	0.001428
305.900000	0.002093
305.800000	-0.000572
305.700000	0.000953
305.600000	0.001430
305.500000	0.000953
305.400000	0.004098
305.300000	0.010481
305.200000	0.003047
305.100000	0.002385
305.000000	0.004292
304.900000	-0.002193
304.800000	0.002192
304.700000	0.003336
304.600000	-0.002479
304.500000	0.000095
304.400000	0.003339
304.300000	-0.003341
304.200000	0.005254
304.100000	0.003340
304.000000	-0.000477
303.900000	0.002576
303.800000	0.002003
303.700000	0.001050
303.600000	0.005061
303.500000	-0.000860
303.400000	-0.002867
303.300000	0.005543
303.200000	-0.000478
303.100000	-0.000382
303.000000	0.004585
302.900000	0.007258
302.800000	0.004013
302.700000	0.002868
302.600000	0.002198
302.500000	0.001146
302.400000	0.005065
302.300000	0.007258
302.200000	0.000574
302.100000	0.005350
302.000000	0.005445
301.900000	-0.000478
301.800000	0.001052
301.700000	0.002294
301.600000	0.002102
301.500000	0.003823
301.400000	0.003540
301.300000	-0.001722
301.200000	0.001912
301.100000	0.001625
301.000000	0.002963
300.900000	0.002008
300.800000	0.000383
300.700000	-0.000861
300.600000	-0.000096
300.500000	0.003347
300.400000	0.002295
300.300000	0.003442
300.200000	0.001051
300.100000	-0.002104
300.000000	0.003158
