PE UV       SUBTECH     SPECTRUM    ASCII       PEDS        4.00        
   -1
Sample183.Sample.Raw.asc
21/01/28
12:24:45.00
21/01/28
12:24:45.00
Administrator

300.000000
1
Lambda 850
850L1710193
PerkinElmer UV WinLab 6.4.0.973 / 2.02.06 Lambda 800 UV/VIS, Jan 28 2016 16:58:34

0
0
2
0
0
UV/VIS
1
1
1
RBeamAtt,SBeamAtt,60mm sphere
0
0
0
0
Fix
 
0
0.2
0
0
0
 
 
 
0
 
0
319.2
0
Front
100
 
S:100 R:100
 
0
0
0
 
0
 
 
 
0
 
 
0
0
0
0
0
 
 
 
 
0
0


0
0
#HDR
-1
-1
#GR
nm
%T
1.0
0.0
750.000000
-1.500000
301
8
73.688194
-0.026862
#DATA
750.000000	73.354120
748.500000	73.688194
747.000000	73.412336
745.500000	73.681669
744.000000	73.487417
742.500000	73.545089
741.000000	73.461387
739.500000	73.491166
738.000000	73.396218
736.500000	73.619770
735.000000	73.482634
733.500000	73.446091
732.000000	73.456707
730.500000	73.584714
729.000000	73.463520
727.500000	73.462217
726.000000	73.371359
724.500000	73.520057
723.000000	73.418307
721.500000	73.375792
720.000000	73.160604
718.500000	73.320425
717.000000	73.336342
715.500000	73.373187
714.000000	73.278961
712.500000	73.280513
711.000000	73.255258
709.500000	73.272573
708.000000	73.210084
706.500000	73.240093
705.000000	73.069617
703.500000	73.262024
702.000000	73.272200
700.500000	73.239981
699.000000	73.146485
697.500000	73.098438
696.000000	73.149844
694.500000	73.112989
693.000000	73.103181
691.500000	73.071846
690.000000	72.994403
688.500000	73.149084
687.000000	73.031212
685.500000	73.035436
684.000000	73.033699
682.500000	72.975943
681.000000	72.999422
679.500000	73.031053
678.000000	72.958259
676.500000	73.013426
675.000000	72.998454
673.500000	72.990917
672.000000	72.932362
670.500000	72.862532
669.000000	72.867054
667.500000	72.862516
666.000000	72.850662
664.500000	72.829283
663.000000	72.895064
661.500000	72.792928
660.000000	72.727780
658.500000	72.725772
657.000000	72.737625
655.500000	72.659714
654.000000	72.625488
652.500000	72.682955
651.000000	72.650159
649.500000	72.550062
648.000000	72.600692
646.500000	72.524812
645.000000	72.539177
643.500000	72.492640
642.000000	72.464666
640.500000	72.462977
639.000000	72.426929
637.500000	72.361816
636.000000	72.340723
634.500000	72.361089
633.000000	72.329134
631.500000	72.290572
630.000000	72.238084
628.500000	72.195272
627.000000	72.188676
625.500000	72.168851
624.000000	72.119765
622.500000	72.064325
621.000000	72.068260
619.500000	72.040612
618.000000	72.067899
616.500000	72.005912
615.000000	71.988313
613.500000	71.964292
612.000000	71.882394
610.500000	71.869441
609.000000	71.875407
607.500000	71.822951
606.000000	71.814390
604.500000	71.775883
603.000000	71.724767
601.500000	71.719343
600.000000	71.697240
598.500000	71.601770
597.000000	71.599279
595.500000	71.607724
594.000000	71.576959
592.500000	71.516542
591.000000	71.472772
589.500000	71.453213
588.000000	71.433264
586.500000	71.369496
585.000000	71.348196
583.500000	71.319310
582.000000	71.300972
580.500000	71.269590
579.000000	71.232334
577.500000	71.157973
576.000000	71.122641
574.500000	71.106556
573.000000	71.052419
571.500000	70.994318
570.000000	70.949573
568.500000	70.888081
567.000000	70.818808
565.500000	70.771434
564.000000	70.722402
562.500000	70.697327
561.000000	70.810106
559.500000	70.918627
558.000000	70.879670
556.500000	70.859529
555.000000	70.854083
553.500000	70.792230
552.000000	70.737015
550.500000	70.685932
549.000000	70.645104
547.500000	70.652228
546.000000	70.669528
544.500000	70.624442
543.000000	70.569815
541.500000	70.526411
540.000000	70.474771
538.500000	70.469938
537.000000	70.457587
535.500000	70.435780
534.000000	70.408579
532.500000	70.366142
531.000000	70.341821
529.500000	70.319258
528.000000	70.292054
526.500000	70.284398
525.000000	70.206704
523.500000	70.102511
522.000000	70.043697
520.500000	69.989417
519.000000	69.901023
517.500000	69.768969
516.000000	69.608920
514.500000	69.409318
513.000000	69.202186
511.500000	68.982281
510.000000	68.752437
508.500000	68.530542
507.000000	68.333622
505.500000	68.169626
504.000000	68.062261
502.500000	67.995439
501.000000	67.981586
499.500000	68.030770
498.000000	68.129989
496.500000	68.218738
495.000000	68.330640
493.500000	68.538536
492.000000	68.729278
490.500000	68.819561
489.000000	68.937147
487.500000	69.080138
486.000000	69.238344
484.500000	69.353007
483.000000	69.616492
481.500000	69.867824
480.000000	69.936305
478.500000	69.702784
477.000000	69.409332
475.500000	69.226731
474.000000	69.100595
472.500000	68.952261
471.000000	68.764028
469.500000	68.548661
468.000000	68.319055
466.500000	68.087073
465.000000	67.847112
463.500000	67.611286
462.000000	67.404420
460.500000	67.297766
459.000000	67.214820
457.500000	67.170139
456.000000	67.204898
454.500000	67.198272
453.000000	67.169768
451.500000	67.135951
450.000000	67.197243
448.500000	67.268602
447.000000	67.258096
445.500000	67.296259
444.000000	67.532743
442.500000	67.753008
441.000000	67.608167
439.500000	67.475903
438.000000	67.365474
436.500000	67.342046
435.000000	67.303932
433.500000	67.198128
432.000000	67.067992
430.500000	66.999642
429.000000	67.018383
427.500000	66.914327
426.000000	66.850409
424.500000	66.817817
423.000000	66.736437
421.500000	66.636190
420.000000	66.536626
418.500000	66.461217
417.000000	66.385092
415.500000	66.294882
414.000000	66.155449
412.500000	66.061749
411.000000	66.010816
409.500000	65.934088
408.000000	65.820061
406.500000	65.753467
405.000000	65.554925
403.500000	65.504428
402.000000	65.413202
400.500000	65.276052
399.000000	65.126075
397.500000	65.048527
396.000000	64.933113
394.500000	64.771623
393.000000	64.626158
391.500000	64.488941
390.000000	64.350836
388.500000	64.124876
387.000000	63.966415
385.500000	63.786965
384.000000	63.480499
382.500000	63.192772
381.000000	62.927898
379.500000	62.532919
378.000000	62.288591
376.500000	62.847864
375.000000	62.791506
373.500000	61.760730
372.000000	60.584231
370.500000	59.422824
369.000000	58.105648
367.500000	56.516141
366.000000	54.735947
364.500000	52.306948
363.000000	49.724768
361.500000	46.497982
360.000000	42.888932
358.500000	38.704259
357.000000	33.995417
355.500000	28.944206
354.000000	23.725644
352.500000	18.502636
351.000000	13.720552
349.500000	9.558075
348.000000	6.267375
346.500000	3.837168
345.000000	2.186706
343.500000	1.169625
342.000000	0.576942
340.500000	0.265293
339.000000	0.115696
337.500000	0.061025
336.000000	0.041208
334.500000	0.034566
333.000000	0.041554
331.500000	0.043170
330.000000	0.044653
328.500000	0.050708
327.000000	0.047112
325.500000	0.046155
324.000000	0.043978
322.500000	0.052916
321.000000	0.050514
319.500000	0.046172
318.000000	0.004799
316.500000	-0.026862
315.000000	-0.026025
313.500000	-0.026048
312.000000	-0.023059
310.500000	-0.023651
309.000000	-0.020453
307.500000	-0.016530
306.000000	-0.010037
304.500000	-0.007109
303.000000	-0.004461
301.500000	-0.004374
300.000000	-0.012363
