PE UV       SUBTECH     SPECTRUM    ASCII       PEDS        4.00        
   -1
Sample159.Sample.Raw.asc
21/01/27
12:40:34.00
21/01/27
12:40:34.00
Administrator

300.000000
1
Lambda 850
850L1710193
PerkinElmer UV WinLab 6.4.0.973 / 2.02.06 Lambda 800 UV/VIS, Jan 28 2016 16:58:34

0
0
2
0
0
UV/VIS
1
1
1
RBeamAtt,SBeamAtt,60mm sphere
0
0
0
0
Fix
 
0
0.2
0
0
0
 
 
 
0
 
0
319.2
0
Front
100
 
S:100 R:100
 
0
0
0
 
0
 
 
 
0
 
 
0
0
0
0
0
 
 
 
 
0
0


0
0
#HDR
-1
-1
#GR
nm
%T
1.0
0.0
750.000000
-1.500000
301
8
72.566034
-0.029547
#DATA
750.000000	72.327052
748.500000	72.538784
747.000000	72.526645
745.500000	72.447665
744.000000	72.430539
742.500000	72.337116
741.000000	72.400100
739.500000	72.566034
738.000000	72.418166
736.500000	72.415480
735.000000	72.240564
733.500000	72.253046
732.000000	72.221366
730.500000	72.239506
729.000000	72.287001
727.500000	72.231517
726.000000	72.263147
724.500000	72.209638
723.000000	72.168563
721.500000	72.165567
720.000000	72.172558
718.500000	72.106976
717.000000	72.045899
715.500000	72.096307
714.000000	72.080958
712.500000	71.953563
711.000000	71.989478
709.500000	71.980663
708.000000	71.902895
706.500000	71.981658
705.000000	71.938210
703.500000	72.007606
702.000000	71.935437
700.500000	71.880210
699.000000	71.751659
697.500000	71.854605
696.000000	71.779194
694.500000	71.883630
693.000000	71.789953
691.500000	71.800900
690.000000	71.470702
688.500000	71.671312
687.000000	71.725833
685.500000	71.666702
684.000000	71.679815
682.500000	71.585802
681.000000	71.521949
679.500000	71.487793
678.000000	71.531741
676.500000	71.410220
675.000000	71.391110
673.500000	71.435996
672.000000	71.345005
670.500000	71.320848
669.000000	71.321379
667.500000	71.295229
666.000000	71.189207
664.500000	71.158941
663.000000	71.086823
661.500000	71.023321
660.000000	70.942082
658.500000	70.905482
657.000000	70.945169
655.500000	70.844744
654.000000	70.780710
652.500000	70.722441
651.000000	70.693971
649.500000	70.558610
648.000000	70.505066
646.500000	70.489726
645.000000	70.356177
643.500000	70.347373
642.000000	70.273987
640.500000	70.183816
639.000000	70.069017
637.500000	70.004943
636.000000	69.951323
634.500000	69.890416
633.000000	69.809312
631.500000	69.723794
630.000000	69.676215
628.500000	69.536450
627.000000	69.476127
625.500000	69.440279
624.000000	69.318049
622.500000	69.226715
621.000000	69.098753
619.500000	69.040950
618.000000	68.979266
616.500000	68.863857
615.000000	68.799866
613.500000	68.705488
612.000000	68.636254
610.500000	68.568370
609.000000	68.471866
607.500000	68.354332
606.000000	68.247610
604.500000	68.193660
603.000000	68.096113
601.500000	67.969983
600.000000	67.888511
598.500000	67.820834
597.000000	67.751777
595.500000	67.646752
594.000000	67.512462
592.500000	67.443347
591.000000	67.314822
589.500000	67.220394
588.000000	67.169292
586.500000	67.112107
585.000000	67.005475
583.500000	66.859534
582.000000	66.744785
580.500000	66.679706
579.000000	66.612486
577.500000	66.496039
576.000000	66.381011
574.500000	66.274215
573.000000	66.155882
571.500000	66.052136
570.000000	65.965414
568.500000	65.857768
567.000000	65.733393
565.500000	65.624703
564.000000	65.518193
562.500000	65.457010
561.000000	65.510570
559.500000	65.546519
558.000000	65.476129
556.500000	65.382111
555.000000	65.269171
553.500000	65.198284
552.000000	65.121081
550.500000	65.003971
549.000000	64.926696
547.500000	64.868724
546.000000	64.742712
544.500000	64.655803
543.000000	64.625053
541.500000	64.560751
540.000000	64.472938
538.500000	64.385048
537.000000	64.325925
535.500000	64.251456
534.000000	64.162699
532.500000	64.108811
531.000000	64.053219
529.500000	63.964082
528.000000	63.878481
526.500000	63.812399
525.000000	63.746511
523.500000	63.638824
522.000000	63.502520
520.500000	63.383269
519.000000	63.287068
517.500000	63.158636
516.000000	62.974608
514.500000	62.770260
513.000000	62.535751
511.500000	62.295507
510.000000	62.104509
508.500000	61.924724
507.000000	61.719567
505.500000	61.542489
504.000000	61.426737
502.500000	61.404759
501.000000	61.453595
499.500000	61.506453
498.000000	61.584845
496.500000	61.709115
495.000000	61.865560
493.500000	62.012061
492.000000	62.175656
490.500000	62.295879
489.000000	62.426287
487.500000	62.550402
486.000000	62.634848
484.500000	62.707918
483.000000	62.925500
481.500000	63.131683
480.000000	63.126702
478.500000	62.827675
477.000000	62.582091
475.500000	62.367670
474.000000	62.202211
472.500000	62.040663
471.000000	61.889050
469.500000	61.690322
468.000000	61.484183
466.500000	61.260289
465.000000	61.072383
463.500000	60.830249
462.000000	60.638837
460.500000	60.545412
459.000000	60.493170
457.500000	60.443218
456.000000	60.461802
454.500000	60.504540
453.000000	60.582228
451.500000	60.612625
450.000000	60.612805
448.500000	60.616830
447.000000	60.649181
445.500000	60.741765
444.000000	60.964461
442.500000	61.068168
441.000000	60.987614
439.500000	60.902401
438.000000	60.784712
436.500000	60.642834
435.000000	60.640741
433.500000	60.587739
432.000000	60.522374
430.500000	60.470173
429.000000	60.387000
427.500000	60.255925
426.000000	60.204251
424.500000	60.142476
423.000000	60.072215
421.500000	60.038655
420.000000	59.943698
418.500000	59.888678
417.000000	59.814730
415.500000	59.710262
414.000000	59.614366
412.500000	59.486135
411.000000	59.393761
409.500000	59.314367
408.000000	59.251826
406.500000	59.215990
405.000000	59.048536
403.500000	58.943613
402.000000	58.859353
400.500000	58.795766
399.000000	58.695992
397.500000	58.640602
396.000000	58.460166
394.500000	58.435744
393.000000	58.272344
391.500000	58.221661
390.000000	58.118386
388.500000	57.945860
387.000000	57.769933
385.500000	57.577502
384.000000	57.413330
382.500000	57.268536
381.000000	57.036964
379.500000	56.729843
378.000000	56.487345
376.500000	56.883143
375.000000	56.903871
373.500000	56.174110
372.000000	55.240212
370.500000	54.238704
369.000000	53.104410
367.500000	51.678376
366.000000	49.963306
364.500000	47.932417
363.000000	45.718350
361.500000	42.802660
360.000000	39.642786
358.500000	35.840773
357.000000	31.595857
355.500000	27.034916
354.000000	22.219524
352.500000	17.553720
351.000000	13.049927
349.500000	9.175039
348.000000	6.098050
346.500000	3.778489
345.000000	2.190594
343.500000	1.188732
342.000000	0.592589
340.500000	0.276961
339.000000	0.124329
337.500000	0.060237
336.000000	0.035869
334.500000	0.035647
333.000000	0.043322
331.500000	0.045596
330.000000	0.047201
328.500000	0.046437
327.000000	0.048642
325.500000	0.044792
324.000000	0.048784
322.500000	0.046795
321.000000	0.047058
319.500000	0.040567
318.000000	0.004247
316.500000	-0.027099
315.000000	-0.029547
313.500000	-0.027692
312.000000	-0.026417
310.500000	-0.028324
309.000000	-0.020424
307.500000	-0.012218
306.000000	-0.009680
304.500000	-0.007511
303.000000	-0.002570
301.500000	-0.008671
300.000000	-0.010694
